Length [m]	OTDR [V]	Brillouin intensity [V]	Fitted Frequency [GHz]	Temperature [”]	Compensated Strain [レュ]	Uncompensated Strain [レュ]
0.51	0.006962	0.073961	10.473372	-119.568291	679.752052	-2455.826393
1.02	0.006960	0.078038	10.458385	-103.698009	-31.211535	-2785.529488
1.53	0.006963	0.081422	10.452063	-78.328573	-761.018474	-2924.619550
2.04	0.006947	0.084357	10.448286	-56.931013	-1340.687498	-3007.708979
2.55	0.006960	0.086946	10.446194	-40.197458	-1774.137202	-3053.733944
3.06	0.006952	0.089222	10.445959	-23.308061	-2168.337966	-3058.897071
3.57	0.006945	0.091158	10.445388	-13.558090	-2405.951644	-3071.462550
4.08	0.006947	0.092743	10.444449	-3.867295	-2650.698476	-3092.131824
4.59	0.006950	0.093993	10.445341	10.996584	-2972.284347	-3072.504695
5.10	0.006957	0.094951	10.445563	23.816895	-3262.285292	-3067.622406
5.61	0.006966	0.095649	10.444314	29.572074	-3423.558464	-3095.086206
6.12	0.006975	0.096129	10.442978	29.754192	-3458.559732	-3124.475042
6.63	0.006972	0.096456	10.442606	25.413594	-3367.232679	-3132.671017
7.14	0.006969	0.096662	10.442928	21.149477	-3261.655127	-3125.593955
7.65	0.006959	0.096783	10.443542	20.512259	-3232.806759	-3112.067754
8.16	0.006958	0.096846	10.444858	25.649257	-3320.716779	-3083.124447
8.67	0.006961	0.096857	10.443578	31.432297	-3483.363348	-3111.286558
9.18	0.006956	0.096833	10.442821	35.889061	-3603.402837	-3127.928683
9.69	0.006953	0.096766	10.443774	36.783852	-3602.035741	-3106.976267
10.20	0.006939	0.096696	10.442443	36.239665	-3620.192917	-3136.246048
10.71	0.006927	0.096624	10.441919	35.760501	-3621.250166	-3147.776334
11.22	0.006927	0.096587	10.443073	37.577476	-3636.460806	-3122.387657
11.73	0.006931	0.096560	10.442825	40.112082	-3700.533672	-3127.850783
12.24	0.006932	0.096551	10.442015	42.843705	-3782.099966	-3145.674746
12.75	0.006939	0.096560	10.441735	43.327784	-3799.696118	-3151.830131
13.26	0.006932	0.096570	10.441586	42.146223	-3775.943772	-3155.118032
13.77	0.006928	0.096579	10.442597	39.724814	-3696.868068	-3132.857978
14.28	0.006927	0.096615	10.443461	38.169270	-3641.144068	-3113.860104
14.79	0.006924	0.096659	10.443430	36.439152	-3602.026620	-3114.536687
15.30	0.006912	0.096725	10.441804	35.172358	-3610.374198	-3150.316463
15.81	0.006893	0.096783	10.440529	33.432384	-3599.718554	-3178.359328
16.32	0.006850	0.096821	10.440572	33.144933	-3592.120714	-3177.423718
16.83	0.006784	0.096846	10.441707	33.078324	-3564.409336	-3152.452336
17.34	0.006690	0.096840	10.442183	33.844472	-3571.061490	-3141.974341
17.85	0.006582	0.096813	10.441753	34.873718	-3604.659889	-3151.423270
18.36	0.006487	0.096783	10.441616	35.948521	-3632.573007	-3154.448583
18.87	0.006399	0.096734	10.442453	35.567521	-3604.506597	-3136.042123
19.38	0.006331	0.096687	10.443847	35.570857	-3572.425418	-3105.366458
19.89	0.006269	0.096619	10.444094	36.007976	-3576.783920	-3099.925557
20.40	0.006227	0.096541	10.443351	38.728435	-3656.547518	-3116.275057
20.91	0.006195	0.096455	10.443360	40.077365	-3687.404304	-3116.088947
21.42	0.006168	0.096377	10.443282	41.193104	-3714.878341	-3117.796541
21.93	0.006145	0.096332	10.443515	40.743753	-3699.168515	-3112.677953
22.44	0.006131	0.096315	10.444272	38.867172	-3638.509418	-3096.021960
22.95	0.006117	0.096314	10.444575	37.279327	-3594.972242	-3089.358431
23.46	0.006110	0.096336	10.444755	36.879350	-3581.597514	-3085.383132
23.97	0.006104	0.096359	10.444024	37.471328	-3612.089446	-3101.470546
24.48	0.006094	0.096384	10.443451	38.456765	-3647.999382	-3114.086448
24.99	0.006093	0.096408	10.443418	39.298332	-3668.115529	-3114.795732
25.50	0.006092	0.096418	10.443179	38.929133	-3665.132534	-3120.057320
26.02	0.006090	0.096417	10.443687	38.075473	-3633.772404	-3108.887876
26.53	0.006089	0.096416	10.442957	37.034471	-3626.649996	-3124.952684
27.04	0.006092	0.096417	10.441660	37.302668	-3662.724501	-3153.475120
27.55	0.006102	0.096431	10.442670	38.355620	-3663.685296	-3131.270307
28.06	0.006105	0.096434	10.443105	39.239899	-3674.007770	-3121.699476
28.57	0.006108	0.096434	10.443171	40.221271	-3695.064418	-3120.235993
29.08	0.006113	0.096416	10.443583	39.774732	-3675.281151	-3111.169984
29.59	0.006111	0.096386	10.443034	39.311258	-3677.288356	-3123.261891
30.10	0.006103	0.096341	10.442427	38.895716	-3681.706369	-3136.600965
30.61	0.006101	0.096300	10.442188	38.564659	-3679.595678	-3141.857113
31.12	0.006096	0.096247	10.442722	38.891029	-3674.797509	-3130.113503
31.63	0.006101	0.096206	10.443084	39.387673	-3677.881465	-3122.149695
32.14	0.006101	0.096138	10.444053	39.500154	-3658.128865	-3100.837681
32.65	0.006098	0.096113	10.444183	38.840867	-3639.940589	-3097.964795
33.16	0.006089	0.096055	10.444115	37.772363	-3616.931649	-3099.479251
33.67	0.006088	0.096049	10.444897	37.888029	-3601.542070	-3082.259201
34.18	0.006087	0.096030	10.445274	36.081251	-3551.267062	-3073.975876
34.69	0.006093	0.096044	10.445051	37.633062	-3592.130213	-3078.879894
35.20	0.006095	0.096033	10.445246	37.665866	-3588.391746	-3074.593419
35.71	0.006100	0.096010	10.445543	37.439346	-3576.331449	-3068.063098
36.22	0.006099	0.095972	10.445066	38.166274	-3604.054845	-3078.546297
36.73	0.006098	0.095925	10.445191	37.274082	-3580.627272	-3075.789864
37.24	0.006090	0.095878	10.445749	37.477756	-3572.454824	-3063.521737
37.75	0.006085	0.095843	10.445945	37.736885	-3573.895860	-3059.206243
38.26	0.006089	0.095814	10.446490	37.498920	-3555.844675	-3047.212507
38.77	0.006092	0.095792	10.445800	37.289509	-3566.948913	-3062.403265
39.28	0.006103	0.095766	10.445062	36.784248	-3572.341863	-3078.642431
39.79	0.006104	0.095725	10.445219	36.118595	-3553.389857	-3075.180803
40.30	0.006104	0.095648	10.444777	35.342962	-3545.720559	-3084.896799
40.81	0.006096	0.095562	10.444129	35.196302	-3557.290782	-3099.154154
41.32	0.006097	0.095454	10.445291	34.943697	-3524.681115	-3073.594453
41.83	0.006091	0.095358	10.446133	35.100534	-3508.873861	-3055.071928
42.34	0.006095	0.095252	10.446664	34.707221	-3487.573701	-3043.390187
42.85	0.006098	0.095189	10.447262	34.312486	-3464.708337	-3030.246615
43.36	0.006094	0.095132	10.446462	34.370464	-3484.477814	-3047.831704
43.87	0.006088	0.095100	10.445453	34.410912	-3508.684493	-3070.034392
44.38	0.006083	0.095074	10.445211	35.035282	-3528.648098	-3075.367522
44.89	0.006073	0.095071	10.446084	35.703746	-3523.889131	-3056.149392
45.40	0.006073	0.095065	10.447254	35.677064	-3496.288396	-3030.406807
45.91	0.006077	0.095082	10.447476	35.501356	-3487.136463	-3025.535043
46.42	0.006076	0.095091	10.447005	35.467403	-3497.200557	-3035.880791
46.93	0.006080	0.095113	10.446907	35.194648	-3493.202379	-3038.056204
47.44	0.006076	0.095135	10.447550	35.642450	-3488.675385	-3023.904802
47.95	0.006080	0.095187	10.447684	36.092007	-3495.938847	-3020.961833
48.46	0.006071	0.095242	10.447614	36.376093	-3504.082888	-3022.492336
48.97	0.006067	0.095331	10.450434	36.845755	-3449.861957	-2960.457615
49.48	0.006061	0.095388	10.469602	37.729628	-3028.135339	-2538.761868
49.99	0.006056	0.095369	10.519209	38.675274	-1905.805908	-1447.401075
50.50	0.006060	0.095149	10.554883	40.186239	-1117.834881	-662.572884
51.01	0.006063	0.094617	10.563261	41.754462	-960.708391	-478.253188
51.53	0.006058	0.093657	10.566077	43.191545	-928.846171	-416.303371
52.04	0.006060	0.092302	10.567869	43.805900	-901.666270	-376.885980
52.55	0.006058	0.090665	10.569151	42.516948	-842.429604	-348.683361
53.06	0.006060	0.088938	10.569290	40.430885	-791.186346	-345.609101
53.57	0.006062	0.087281	10.569277	37.342911	-720.415647	-345.908074
54.08	0.006067	0.085841	10.569628	34.788655	-653.519795	-338.183591
54.59	0.006063	0.084645	10.569709	32.085154	-589.424582	-336.407850
55.10	0.006066	0.083716	10.570260	29.920642	-526.895712	-324.290833
55.61	0.006061	0.082998	10.570562	28.377589	-484.389306	-317.626985
56.12	0.006067	0.082462	10.570438	27.360024	-463.830472	-320.360078
56.63	0.006058	0.082061	10.570610	26.410842	-438.008153	-316.570713
57.14	0.006054	0.081772	10.570590	25.950176	-427.870936	-317.016327
57.65	0.006057	0.081549	10.570891	25.414520	-408.596703	-310.392792
58.16	0.006057	0.081403	10.571176	25.079450	-394.327397	-304.138876
58.67	0.006048	0.081301	10.571141	25.211532	-398.168512	-304.902617
59.18	0.006051	0.081248	10.570848	25.049904	-401.203217	-311.346544
59.69	0.006047	0.081204	10.571312	24.888801	-386.788900	-301.134259
60.20	0.006050	0.081187	10.571219	24.987061	-391.195141	-303.179736
60.71	0.006046	0.081153	10.570748	24.890125	-399.839530	-313.554230
61.22	0.006049	0.081123	10.570752	24.576854	-392.515001	-313.446326
61.73	0.006048	0.081081	10.570573	23.786840	-378.473238	-317.399378
62.24	0.006046	0.081038	10.570735	23.402911	-365.885787	-313.822674
62.75	0.006040	0.080983	10.571264	23.005648	-344.543641	-302.187621
63.26	0.006045	0.080959	10.571800	22.549970	-321.708213	-290.410822
63.77	0.006040	0.080926	10.571774	22.573296	-322.841861	-290.980017
64.28	0.006066	0.080926	10.571451	23.026754	-340.713141	-298.070237
64.79	0.006164	0.080932	10.571528	23.146707	-341.704325	-296.381741
65.30	0.006437	0.080930	10.571397	23.468583	-352.139441	-299.267901
65.81	0.007043	0.080895	10.571558	22.997246	-337.578659	-295.728191
66.32	0.008095	0.080850	10.571594	22.813291	-332.499371	-294.922420
66.83	0.009525	0.080766	10.571586	22.617174	-328.174921	-295.103745
67.34	0.011055	0.080708	10.571889	22.855045	-326.664101	-288.439262
67.85	0.012211	0.080665	10.572182	22.750967	-317.509183	-281.991753
68.36	0.012747	0.080677	10.571870	22.856007	-327.130695	-288.863237
68.87	0.012557	0.080715	10.572236	22.645010	-313.828277	-280.807182
69.38	0.011861	0.080776	10.572214	22.847391	-318.985703	-281.282870
69.89	0.010872	0.080810	10.572245	22.651878	-313.786934	-280.616940
70.40	0.009867	0.080829	10.572361	22.803275	-314.597697	-278.065862
70.91	0.008963	0.080800	10.572223	22.741637	-316.346425	-281.087471
71.42	0.008252	0.080769	10.572369	23.118911	-321.678522	-277.889383
71.93	0.007708	0.080719	10.572316	23.170651	-324.083603	-279.047453
72.44	0.007326	0.080703	10.572224	22.839908	-318.588143	-281.067955
72.95	0.007043	0.080687	10.572407	22.604592	-308.949836	-277.041127
73.46	0.006848	0.080705	10.572318	22.020770	-297.579310	-279.014616
73.97	0.006702	0.080704	10.572822	21.947076	-284.245969	-267.914094
74.48	0.006597	0.080712	10.573795	22.003600	-263.098518	-246.500242
74.99	0.006517	0.080701	10.573603	22.441165	-277.614447	-250.738772
75.50	0.006460	0.080713	10.573245	22.400812	-284.945345	-258.617850
76.01	0.006417	0.080713	10.572625	22.800264	-308.427426	-272.246132
76.52	0.006391	0.080739	10.572306	22.686206	-313.164993	-279.269859
77.03	0.006371	0.080731	10.572729	22.421154	-297.296272	-269.952784
77.55	0.006349	0.080720	10.573053	22.647550	-295.045233	-262.834169
78.06	0.006339	0.080687	10.572910	22.819638	-302.299501	-265.975231
78.57	0.006323	0.080652	10.572815	22.957064	-307.654077	-268.065311
79.08	0.006305	0.080607	10.572687	23.383151	-320.429876	-270.895968
79.59	0.006307	0.080590	10.572967	23.290557	-311.819325	-264.715536
80.10	0.006301	0.080561	10.573632	22.906489	-287.660699	-250.104079
80.61	0.006308	0.080547	10.573653	22.909482	-287.235293	-249.632564
81.12	0.006319	0.080550	10.573231	22.700154	-292.145273	-258.912769
81.63	0.006332	0.080566	10.573544	23.028694	-292.502955	-252.039690
82.14	0.006336	0.080588	10.573539	22.871234	-288.996928	-252.152874
82.65	0.006349	0.080627	10.573591	23.586262	-304.248269	-251.000217
83.16	0.006356	0.080656	10.573047	23.936012	-324.837638	-262.960519
83.67	0.006368	0.080699	10.573466	24.495429	-328.065243	-253.755330
84.18	0.006370	0.080727	10.573990	24.931983	-326.012619	-242.211227
84.69	0.006375	0.080769	10.573928	24.882886	-326.319407	-243.581980
85.20	0.006374	0.080789	10.573863	24.803022	-325.972581	-245.004843
85.71	0.006381	0.080819	10.573624	25.232413	-341.370461	-250.264142
86.22	0.006378	0.080821	10.573949	25.093442	-330.695445	-243.132788
86.73	0.006353	0.080797	10.574459	25.154878	-320.329053	-231.895191
87.24	0.006317	0.080740	10.574064	24.721116	-319.468589	-240.599184
87.75	0.006262	0.080657	10.573751	24.271958	-316.336645	-247.474464
88.26	0.006176	0.080542	10.574187	23.432221	-286.958948	-237.890354
88.77	0.006127	0.080446	10.574561	23.258654	-274.338500	-229.662941
89.28	0.006152	0.080431	10.574397	22.983892	-271.795106	-233.270159
89.79	0.006195	0.080523	10.574714	23.729890	-281.656467	-226.295910
90.30	0.006219	0.080610	10.574674	23.738674	-282.767098	-227.162456
90.81	0.006228	0.080634	10.574216	24.420626	-309.035719	-237.245546
91.32	0.006281	0.080562	10.574122	24.290143	-308.193049	-239.306930
91.83	0.006283	0.080512	10.573944	23.910122	-303.563932	-243.235925
92.34	0.006294	0.080460	10.574590	23.642015	-282.497271	-229.027560
92.85	0.006301	0.080426	10.574809	24.033660	-286.448983	-224.197175
93.36	0.006311	0.080405	10.575155	23.759361	-272.160171	-216.590218
93.87	0.006315	0.080406	10.575581	23.998548	-267.838052	-207.215112
94.38	0.006317	0.080408	10.575366	23.875966	-269.979000	-211.949110
94.89	0.006339	0.080396	10.575104	24.027690	-279.507414	-217.706651
95.40	0.006345	0.080365	10.575234	23.733574	-269.749815	-214.857199
95.91	0.006346	0.080374	10.575105	23.837991	-275.120184	-217.687180
96.42	0.006347	0.080413	10.574728	24.104036	-289.937868	-225.979868
96.93	0.006349	0.080476	10.574743	24.758454	-304.670157	-225.662994
97.44	0.006352	0.080514	10.575250	24.647214	-290.407073	-214.500037
97.95	0.006356	0.080507	10.574344	24.919582	-317.567154	-234.427372
98.46	0.006356	0.080445	10.570371	23.060006	-366.399585	-321.842508
98.97	0.006365	0.080386	10.565033	17.067406	-351.563771	-439.279458
99.48	0.006366	0.080366	10.560245	1.936734	-113.689802	-544.618167
99.99	0.006368	0.080436	10.552349	-27.063625	371.780750	-718.331728
100.50	0.006371	0.080577	10.540441	-67.033397	1017.253926	-980.290551
101.01	0.006371	0.080797	10.530750	-107.123089	1716.581919	-1193.510295
101.52	0.006371	0.081040	10.526350	-138.499016	2337.380620	-1290.297695
102.03	0.006371	0.081300	10.524862	-156.820984	2724.828087	-1323.033796
102.54	0.006371	0.081574	10.524224	-163.870265	2872.381405	-1337.074054
103.06	0.006371	0.081871	10.525223	-160.590034	2819.908414	-1315.099132
103.57	0.006371	0.082161	10.525931	-149.494102	2580.825391	-1299.510845
104.08	0.006371	0.082442	10.527506	-131.636988	2206.073194	-1264.872221
104.59	0.006371	0.082633	10.529788	-110.054715	1761.884435	-1214.670305
105.10	0.006371	0.082752	10.534456	-86.688250	1331.671953	-1111.958043
105.61	0.006371	0.082781	10.538557	-64.931616	925.402083	-1021.756400
106.12	0.006377	0.082776	10.541013	-45.651180	538.235499	-967.705799
106.63	0.006385	0.082767	10.542835	-30.430484	229.882520	-927.620565
107.14	0.006402	0.082812	10.543066	-17.911532	-52.985118	-922.551180
107.65	0.006403	0.082885	10.543168	-8.490331	-267.495723	-920.297842
108.16	0.006418	0.083006	10.543224	-0.801514	-443.203582	-919.071055
108.67	0.006421	0.083118	10.543295	5.015927	-575.492172	-917.519124
109.18	0.006424	0.083218	10.544351	9.666953	-658.192539	-894.277552
109.69	0.006442	0.083285	10.544829	12.990149	-723.665911	-883.760316
110.20	0.007458	0.083356	10.543815	15.648034	-808.248300	-906.080533
110.71	0.017711	0.083420	10.543530	17.398769	-855.114795	-912.343074
111.22	0.067464	0.083491	10.543904	18.812090	-879.010038	-904.102378
111.73	0.192882	0.083545	10.544040	20.272185	-909.504682	-901.129782
112.24	0.192882	0.083570	10.543711	20.938095	-932.403986	-908.351094
112.75	0.192882	0.083547	10.543328	21.741752	-959.744638	-916.784324
113.26	0.192882	0.083511	10.543858	22.613411	-967.574873	-905.113250
113.77	0.192882	0.083461	10.544115	22.310636	-954.700112	-899.480466
114.28	0.192882	0.083436	10.544152	22.516403	-958.578801	-898.662003
114.79	0.192882	0.083424	10.543712	22.070445	-958.446920	-908.328799
115.30	0.192882	0.083443	10.543583	21.516228	-948.662114	-911.164833
115.81	0.192882	0.083463	10.543276	20.885193	-941.218761	-917.921214
116.32	0.192882	0.083511	10.543581	20.851551	-933.417963	-911.218729
116.83	0.192882	0.083547	10.543299	20.298552	-927.185035	-917.416180
117.34	0.192882	0.083602	10.543323	20.129306	-922.737540	-916.890076
117.85	0.192882	0.083627	10.543507	19.565455	-905.517110	-912.844777
118.36	0.192882	0.083653	10.543407	19.555274	-907.595183	-915.050635
118.87	0.192882	0.083649	10.543649	19.260720	-895.229838	-909.723254
119.38	0.192882	0.083629	10.542960	19.216831	-910.112592	-924.883731
119.89	0.192882	0.083586	10.542199	18.646280	-914.531718	-941.627628
120.40	0.192882	0.083548	10.542437	18.638064	-908.857937	-936.395797
120.91	0.192882	0.083483	10.542099	19.749705	-942.226570	-943.816267
121.42	0.192882	0.083423	10.541867	21.551629	-989.054094	-948.917607
121.93	0.192882	0.083359	10.542676	24.418311	-1036.400517	-931.133359
122.44	0.132678	0.083317	10.542798	29.278726	-1145.469100	-928.446675
122.95	0.085951	0.083282	10.542777	32.102410	-1210.957843	-928.912669
123.46	0.050454	0.083278	10.542430	30.581618	-1183.946090	-936.540440
123.97	0.023677	0.083297	10.541676	28.082294	-1143.805413	-953.131617
124.48	0.004710	0.083337	10.541717	26.848162	-1114.443485	-952.222899
124.99	0.000000	0.083366	10.541988	26.423040	-1098.418101	-946.271265
125.50	0.000000	0.083410	10.542692	23.539969	-1015.815403	-930.784254
126.01	0.000000	0.083438	10.542028	23.544461	-1031.223593	-945.383563
126.52	0.000000	0.083477	10.541559	23.125236	-1032.391042	-955.702789
127.03	0.000000	0.083502	10.541883	22.830648	-1018.136479	-948.574000
127.54	0.000000	0.083520	10.541868	22.336758	-1007.106969	-948.898023
128.05	0.000000	0.083514	10.541406	22.060227	-1011.407005	-959.072079
128.56	0.000000	0.083505	10.541050	21.921332	-1016.408784	-966.893234
129.08	0.000000	0.083471	10.541427	20.507707	-975.188992	-958.614654
129.59	-0.001424	0.083438	10.541641	20.057204	-959.867044	-953.891365
130.10	0.002843	0.083391	10.541766	19.772486	-950.448149	-951.158624
130.61	0.005998	0.083357	10.542156	19.570661	-936.798824	-942.570259
131.12	0.007826	0.083320	10.541929	19.316282	-936.178595	-947.564418
131.63	0.008209	0.083307	10.541209	19.071227	-947.134976	-963.396827
132.14	0.007172	0.083279	10.540266	18.746638	-961.415304	-984.146414
132.65	0.004908	0.083275	10.541054	18.716342	-942.549250	-966.815228
133.16	0.001679	0.083257	10.545202	18.122920	-833.223164	-875.559228
133.67	-0.002183	0.083234	10.567103	17.956647	-324.295876	-393.742012
134.18	-0.006326	0.083165	10.595336	17.552718	336.150348	227.391289
134.69	-0.010148	0.083045	10.586670	16.859452	152.237000	36.732277
135.20	-0.013324	0.082841	10.587423	15.987680	189.680231	53.306714
135.71	-0.015651	0.082595	10.613637	14.936623	818.440839	630.004941
136.22	-0.016989	0.082322	10.635620	13.769297	1352.322612	1113.644668
136.73	-0.017234	0.082056	10.643815	12.633398	1567.462249	1293.924743
137.24	-0.016472	0.081794	10.634974	11.512886	1389.371201	1099.437952
137.75	-0.014803	0.081555	10.608716	10.490126	807.317764	521.755879
138.26	-0.012485	0.081310	10.603240	9.441261	705.169952	401.284972
138.77	-0.009744	0.081100	10.625012	8.544092	1227.942336	880.259663
139.28	-0.006852	0.080927	10.642822	7.805903	1655.694106	1272.084685
139.79	-0.004023	0.080809	10.648114	7.299926	1789.387313	1388.504780
140.30	-0.001636	0.080714	10.635047	6.602650	1504.074042	1101.031816
140.81	0.000199	0.080646	10.608372	5.851477	906.148823	514.173231
141.32	0.001339	0.080568	10.607901	4.608145	923.927915	503.831017
141.83	0.001811	0.080508	10.630474	4.303617	1451.539576	1000.435443
142.34	0.001625	0.080451	10.646412	3.279680	1842.677968	1351.060162
142.85	0.000918	0.080407	10.649869	2.942147	1930.191811	1427.128330
143.36	-0.000252	0.080329	10.634830	2.461016	1594.419113	1096.268089
143.87	-0.001662	0.080245	10.607915	1.137432	1004.130378	504.124647
144.38	-0.003143	0.080131	10.610337	-45.523779	2134.125475	557.419316
144.89	-0.004497	0.080041	10.634880	-215.090942	6603.527990	1097.352898
145.40	-0.006036	0.079977	10.649939	-305.906185	9041.373011	1428.652901
145.91	-0.006724	0.079950	10.652154	-326.908431	9575.921567	1477.382226
146.42	-0.007505	0.079895	10.639364	-326.916150	9281.130872	1196.010381
146.93	-0.007829	0.079748	10.618881	-326.936874	8809.205950	745.383736
147.44	-0.007652	0.079244	10.613219	-327.008110	8680.268273	620.825185
147.95	-0.007367	0.078008	10.618747	-327.182671	8811.765745	742.428183
148.46	-0.006879	0.075424	10.624498	-327.547656	8952.803993	868.950729
148.97	-0.006273	0.070920	10.626515	-328.183713	9013.969365	913.329782
149.48	-0.005211	0.064300	10.629279	-329.118686	9099.244224	974.143239
149.99	-0.004697	0.055967	10.650788	-330.295505	9622.396755	1447.339834
150.50	-0.003900	0.046706	10.670028	-331.603485	10096.244619	1870.624352
151.01	-0.003042	0.037440	10.680929	-332.912191	10377.763299	2110.429149
151.52	-0.002796	0.028937	10.689267	-334.113060	10597.723816	2293.881235
152.03	-0.002388	0.021667	10.692465	-335.139897	10695.120949	2364.240990
152.54	-0.002208	0.015768	10.714980	-335.973045	11233.561162	2859.567102
153.05	-0.001976	0.011190	10.721560	-336.619632	11400.198237	3004.324939
153.56	-0.002205	0.007719	10.750326	-337.109837	12074.913012	3637.174595
154.07	-0.002083	0.005138	10.647484	-337.474327	9711.455509	1374.656775
154.59	-0.002375	0.003202	10.633312	-337.747806	9390.884591	1062.857338
155.10	-0.002527	0.001765	10.632709	-337.950710	9381.651148	1049.594036
155.61	-0.002651	0.000682	10.630078	-338.103653	9324.490396	991.709704
156.12	-0.002861	-0.000122	10.630081	-338.217294	9327.185115	991.784800
156.63	-0.002981	-0.000741	10.630079	-338.352244	9330.251898	991.746933
157.14	-0.003175	-0.001180	10.630095	-338.574047	9335.719302	992.091835
157.65	-0.003361	-0.001500	10.630083	-339.009628	9345.471302	991.829572
158.16	-0.003551	-0.001705	10.630086	-340.161636	9372.047023	991.883835
158.67	-0.003726	-0.001828	10.630123	-348.772731	9571.127144	992.700066
159.18	-0.003845	-0.001885	10.630120	-Inf	Inf	992.630486
159.69	-0.004045	-0.001910	10.630137	-Inf	Inf	993.007894
160.20	-0.004110	-0.001903	10.630128	-Inf	Inf	992.825471
160.71	-0.004183	-0.001891	10.630132	-Inf	Inf	992.895958
161.22	-0.004093	-0.001851	10.630156	-Inf	Inf	993.425789
161.73	-0.004004	-0.001813	10.632819	-Inf	Inf	1052.012611
162.24	-0.003798	-0.001750	10.635078	-Inf	Inf	1101.723507
162.75	-0.003548	-0.001689	10.635104	-Inf	Inf	1102.283637
163.26	-0.003231	-0.001634	10.635127	-Inf	Inf	1102.795475
163.77	-0.002794	-0.001583	10.646531	-307.927904	9009.316707	1353.680165
164.28	-0.002534	-0.001530	10.647361	-352.864801	10062.890407	1371.939550
164.79	-0.002205	-0.001493	10.647377	-344.982822	9881.817695	1372.290339
165.30	-0.001861	-0.001456	10.646846	-343.269038	9830.134109	1360.621348
165.81	-0.001658	-0.001451	10.645107	-343.016175	9784.185652	1322.343391
166.32	-0.001523	-0.001462	10.645110	-343.752097	9801.211529	1322.424672
166.83	-0.001470	-0.001513	10.645116	-346.595541	9866.794203	1322.546342
167.34	-0.001575	-0.001581	10.645135	-363.858868	10264.633278	1322.969114
167.85	-0.001799	-0.001657	10.645123	-317.514518	9197.516990	1322.697062
168.36	-0.002006	-0.001720	10.645128	-330.794654	9503.338120	1322.808614
168.87	-0.002411	-0.001761	10.645110	-333.473650	9564.595189	1322.415121
169.38	-0.002699	-0.001744	10.645101	-334.633956	9591.092764	1322.212636
169.89	-0.003058	-0.001718	10.645103	-335.209810	9604.402365	1322.263807
170.40	-0.003308	-0.001655	10.645102	-335.546434	9612.135531	1322.248729
170.91	-0.003544	-0.001617	10.645104	-335.644626	9614.433284	1322.284408
171.42	-0.003586	-0.001569	10.648170	-335.605927	9684.249466	1389.732183
171.93	-0.003640	-0.001537	10.649866	-335.372339	9718.003016	1427.059134
172.44	-0.003474	-0.001497	10.648616	-334.932468	9679.038354	1399.549492
172.95	-0.003289	-0.001461	10.647801	-334.115903	9641.450482	1381.624814
173.46	-0.002975	-0.001425	10.647905	-332.536869	9607.488311	1383.901458
173.97	-0.002661	-0.001386	10.645109	-328.814036	9457.309085	1322.392810
174.48	-0.002259	-0.001331	10.645103	-316.029687	9162.887307	1322.268391
174.99	-0.001953	-0.001298	10.645092	-516.129900	13768.863029	1322.017774
175.50	-0.001632	-0.001265	10.645088	-363.945087	10265.538876	1321.939725
176.01	-0.001423	-0.001267	10.645097	-357.262124	10111.914349	1322.144806
176.52	-0.001268	-0.001287	10.645098	-359.782455	10169.933680	1322.146874
177.03	-0.001238	-0.001326	10.645096	-377.543827	10578.750006	1322.104555
177.54	-0.001246	-0.001367	10.645117	-190.576510	6275.307340	1322.563384
178.05	-0.001411	-0.001422	10.646759	-314.890367	9174.844731	1358.692479
178.56	-0.001557	-0.001454	10.645214	-325.594612	9385.633159	1324.714730
179.07	-0.001827	-0.001487	10.646609	-329.192776	9500.628757	1355.399080
179.58	-0.002038	-0.001483	10.646632	-331.508477	9554.471091	1355.910086
180.09	-0.002306	-0.001474	10.647002	-332.227581	9579.544432	1364.037160
180.61	-0.002477	-0.001435	10.647101	-332.992037	9599.425002	1366.214981
181.12	-0.002665	-0.001396	10.647298	-333.341677	9612.020713	1370.552501
181.63	-0.002715	-0.001336	10.647835	-333.443646	9626.766801	1382.379771
182.14	-0.002779	-0.001278	10.647535	-333.475686	9620.573541	1375.768455
182.65	-0.002674	-0.001222	10.647567	-333.360893	9618.677518	1376.480515
183.16	-0.002605	-0.001174	10.647037	-333.103093	9600.512143	1364.813381
183.67	-0.002398	-0.001134	10.645778	-332.271071	9552.317736	1337.110500
184.18	-0.002222	-0.001104	10.646454	-331.796769	9557.003865	1351.995617
184.69	-0.001969	-0.001090	10.644886	-330.590069	9493.052094	1317.489120
185.20	-0.001780	-0.001071	10.643357	-328.611911	9412.247433	1283.846661
185.71	-0.001558	-0.001099	10.643099	-327.487142	9380.407417	1278.172610
186.22	-0.001442	-0.001111	10.638018	-325.525041	9218.054967	1166.388710
186.73	-0.001321	-0.001161	10.638476	-323.872215	9190.578125	1176.472104
187.24	-0.001306	-0.001206	10.637245	-321.571839	9109.225338	1149.382237
187.75	-0.001298	-0.001248	10.632911	-322.787844	9037.261262	1054.033600
188.26	-0.001396	-0.001278	10.613850	-321.489080	8567.775351	634.707610
188.77	-0.001465	-0.001281	10.612321	-323.499628	8578.779106	601.055387
189.28	-0.001633	-0.001276	10.612046	-324.447550	8594.270717	595.017914
189.79	-0.001742	-0.001240	10.610096	-325.457203	8572.532384	552.111076
190.30	-0.001917	-0.001203	10.610122	-326.748522	8602.853732	552.679231
190.81	-0.002000	-0.001164	10.610101	-327.566527	8621.213296	552.230305
191.32	-0.002132	-0.001142	10.610097	-328.400297	8640.301263	552.130012
191.83	-0.002149	-0.001144	10.610817	-328.928834	8669.068056	567.964898
192.34	-0.002193	-0.001156	10.611687	-329.328146	8698.327534	587.107329
192.85	-0.002119	-0.001160	10.612961	-329.716060	8736.637337	615.133217
193.36	-0.002088	-0.001157	10.614905	-330.001433	8788.039261	657.899392
193.87	-0.001947	-0.001130	10.612760	-330.588144	8752.083171	610.717347
194.38	-0.001863	-0.001097	10.610135	-330.931002	8699.429092	552.961694
194.89	-0.001696	-0.001063	10.612609	-331.279363	8764.511380	607.394509
195.40	-0.001606	-0.001050	10.613778	-331.209394	8789.865610	633.116461
195.91	-0.001455	-0.001054	10.610820	-331.030512	8717.522806	568.036286
196.42	-0.001410	-0.001086	10.600045	-330.411693	8454.782506	330.995351
196.93	-0.001319	-0.001103	10.600051	-329.727787	8439.174171	331.124075
197.44	-0.001335	-0.001100	10.600053	-328.922949	8420.682204	331.157583
197.95	-0.001309	-0.001062	10.600054	-327.845750	8395.912648	331.183537
198.46	-0.001383	-0.001017	10.600063	-327.263485	8382.721995	331.386614
198.97	-0.001405	-0.000978	10.600067	-326.113498	8356.346037	331.478517
199.48	-0.001514	-0.000973	10.600072	-323.958493	8306.848454	331.583348
199.99	-0.001552	-0.001005	10.600075	-321.679934	8254.474180	331.657157
200.50	-0.001658	-0.001053	10.600091	-319.354855	8201.317617	332.006233
201.01	-0.001676	-0.001104	10.603681	-317.746803	8247.096032	410.985032
201.52	-0.001754	-0.001155	10.607180	-318.219260	8338.665136	487.958790
202.03	-0.001732	-0.001177	10.607016	-320.368222	8384.362878	484.361962
202.54	-0.001764	-0.001172	10.607123	-322.282380	8430.886275	486.708686
203.05	-0.001696	-0.001144	10.518300	-325.279391	6451.331218	-1467.409013
203.56	-0.001682	-0.001102	10.525183	-327.074633	6651.402220	-1315.981211
204.07	-0.001586	-0.001059	10.523929	-328.761672	6661.328713	-1343.557233
204.58	-0.001551	-0.001020	10.508722	-329.803043	6334.572669	-1678.118513
205.09	-0.001440	-0.000988	10.508501	-330.607312	6348.002007	-1682.968792
205.60	-0.001415	-0.000967	10.513082	-330.857379	6459.406610	-1582.190485
206.12	-0.001323	-0.000967	10.548780	-330.961894	7285.109020	-796.843755
206.63	-0.001316	-0.000980	10.580107	-330.512358	7997.271374	-107.637307
207.14	-0.001249	-0.001007	10.505062	-329.856917	6251.407785	-1758.632915
207.65	-0.001277	-0.001042	10.552573	-328.658751	7319.582670	-713.385443
208.16	-0.001244	-0.001073	10.562658	-327.214812	7518.923816	-491.526080
208.67	-0.001296	-0.001099	10.560689	-324.950494	7421.385966	-534.846740
209.18	-0.001283	-0.001123	10.570889	-322.529006	7600.884284	-310.449982
209.69	-0.001356	-0.001124	10.556036	-319.445892	7187.357830	-637.214195
210.20	-0.001357	-0.001097	10.515869	-317.203282	6209.359510	-1520.887256
210.71	-0.001424	-0.001046	10.562191	-315.725408	7243.665725	-501.805304
211.22	-0.001409	-0.000975	10.503346	-316.749218	5910.082163	-1796.398848
211.73	-0.001458	-0.000903	10.506657	-318.452322	6025.665101	-1723.541429
212.24	-0.001423	-0.000853	10.489543	-321.729210	5706.384314	-2100.060765
212.75	-0.001444	-0.000808	10.489566	-324.057649	5760.517969	-2099.551586
213.26	-0.001386	-0.000791	10.499056	-326.406909	6033.462943	-1890.774368
213.77	-0.001396	-0.000796	10.568682	-327.555667	7665.696047	-359.003984
214.28	-0.001322	-0.000806	10.490708	-328.684662	5893.372250	-2074.423797
214.79	-0.001318	-0.000853	10.508030	-328.813354	6295.824935	-1693.348009
215.30	-0.001246	-0.000906	10.531095	-328.939587	6830.688173	-1185.911145
215.81	-0.001245	-0.000963	10.553092	-328.538616	7328.770736	-701.982905
216.32	-0.001184	-0.001005	10.504004	-328.343799	6192.167419	-1781.916683
216.83	-0.001211	-0.001033	10.504794	-327.681766	6195.150267	-1764.534041
217.34	-0.001166	-0.001022	10.506114	-327.512799	6221.701103	-1735.496794
217.85	-0.001203	-0.001005	10.497051	-326.775626	5995.708154	-1934.885359
218.36	-0.001170	-0.000979	10.507974	-326.194838	6234.275326	-1694.561642
218.87	-0.001219	-0.000955	10.492060	-324.986408	5839.430632	-2044.670617
219.38	-0.001192	-0.000953	10.501690	-323.619075	6030.042745	-1832.820057
219.89	-0.001239	-0.000959	10.481641	-321.431192	5517.286109	-2273.898455
220.40	-0.001216	-0.000977	10.481434	-319.739617	5473.571703	-2278.453283
220.91	-0.001257	-0.000990	10.480105	-317.781681	5397.859696	-2307.681873
221.42	-0.001222	-0.000995	10.480098	-317.439186	5389.808396	-2307.841354
221.93	-0.001257	-0.000996	10.480106	-317.295057	5386.677131	-2307.663405
222.44	-0.001211	-0.000993	10.480113	-318.811241	5421.737884	-2307.512016
222.95	-0.001241	-0.000992	10.480099	-319.757735	5443.195730	-2307.826925
223.46	-0.001187	-0.000990	10.480086	-321.677296	5487.093561	-2308.103362
223.97	-0.001206	-0.000975	10.480085	-322.956168	5516.508262	-2308.126731
224.48	-0.001152	-0.000941	10.480083	-324.836936	5559.762112	-2308.165627
224.99	-0.001171	-0.000904	10.480081	-325.889136	5583.929452	-2308.217105
225.50	-0.001119	-0.000864	10.480081	-327.161696	5613.218445	-2308.221762
226.01	-0.001143	-0.000832	10.480080	-327.653736	5624.518821	-2308.246772
226.52	-0.001093	-0.000808	10.480079	-328.166906	5636.318113	-2308.259846
227.03	-0.001136	-0.000800	10.480078	-327.914779	5630.489816	-2308.283139
227.54	-0.001101	-0.000802	10.480082	-327.735018	5626.441426	-2308.197635
228.05	-0.001143	-0.000826	10.480086	-326.641465	5601.355373	-2308.114492
228.56	-0.001112	-0.000871	10.480072	-325.467406	5574.017098	-2308.411961
229.07	-0.001148	-0.000939	10.480070	-323.126443	5520.088493	-2308.450536
229.58	-0.001113	-0.001014	10.480076	-321.007150	5471.433847	-2308.325809
230.09	-0.001150	-0.001063	10.480125	-318.303791	5410.323630	-2307.257261
230.60	-0.001106	-0.001096	10.480133	-317.025926	5381.106227	-2307.067792
231.11	-0.001142	-0.001094	10.480122	-315.600295	5348.028651	-2307.315846
231.62	-0.001105	-0.001066	10.480110	-316.461919	5367.574789	-2307.590709
232.14	-0.001140	-0.001003	10.480110	-317.315953	5387.248399	-2307.577330
232.65	-0.001104	-0.000925	10.480093	-319.971306	5447.974697	-2307.957946
233.16	-0.001133	-0.000839	10.480092	-321.932480	5493.102070	-2307.975286
233.67	-0.001086	-0.000757	10.480102	-324.581907	5554.315665	-2307.760961
234.18	-0.001121	-0.000690	10.480097	-326.084125	5588.776713	-2307.874937
234.69	-0.001075	-0.000637	10.480079	-327.732992	5626.336679	-2308.253059
235.20	-0.001104	-0.000614	10.480072	-328.215489	5637.278153	-2308.410874
235.71	-0.001064	-0.000617	10.480073	-328.613730	5646.470971	-2308.386601
236.22	-0.001091	-0.000636	10.480078	-328.202572	5637.102410	-2308.294892
236.73	-0.001045	-0.000660	10.480073	-328.003766	5632.433321	-2308.383259
237.24	-0.001077	-0.000689	10.480071	-327.136126	5612.397941	-2308.442965
237.75	-0.001032	-0.000705	10.480072	-326.785121	5604.357152	-2308.405567
238.26	-0.001067	-0.000724	10.480071	-325.766128	5580.869856	-2308.434587
238.77	-0.001022	-0.000738	10.480074	-325.236343	5568.744611	-2308.367586
239.28	-0.001060	-0.000765	10.480094	-323.730231	5534.539373	-2307.924078
239.79	-0.001018	-0.000797	10.480165	-322.855358	5516.022781	-2306.376196
240.30	-0.001055	-0.000831	10.481020	-321.079658	5494.866459	-2287.565479
240.81	-0.001011	-0.000872	10.480166	-320.151732	5453.806873	-2306.356512
241.32	-0.001038	-0.000897	10.480148	-318.635937	5418.501550	-2306.749733
241.83	-0.001000	-0.000905	10.480095	-318.899332	5423.347220	-2307.911212
242.34	-0.001031	-0.000898	10.480080	-318.522651	5414.339366	-2308.232474
242.85	-0.000995	-0.000876	10.480067	-319.780308	5442.981605	-2308.526836
243.36	-0.001023	-0.000860	10.480068	-319.947012	5446.842694	-2308.504314
243.87	-0.000986	-0.000847	10.480071	-321.174372	5475.165920	-2308.437711
244.38	-0.001010	-0.000839	10.480067	-321.358309	5479.312640	-2308.521131
244.89	-0.000971	-0.000848	10.480069	-321.988199	5493.862358	-2308.473571
245.40	-0.001003	-0.000859	10.480081	-321.595780	5485.087873	-2308.226635
245.91	-0.000956	-0.000854	10.480077	-322.253803	5500.145494	-2308.312322
246.42	-0.000987	-0.000829	10.483931	-322.334561	5590.887264	-2223.526625
246.93	-0.000942	-0.000787	10.484916	-323.358695	5637.178242	-2201.857944
247.44	-0.000967	-0.000729	10.481391	-323.866437	5567.585143	-2279.392448
247.95	-0.000928	-0.000659	10.482310	-325.345851	5622.839479	-2259.170855
248.46	-0.000957	-0.000606	10.484915	-325.715323	5691.410554	-2201.873647
248.97	-0.000916	-0.000568	10.484920	-326.449508	5708.423944	-2201.766137
249.48	-0.000949	-0.000550	10.467265	-326.181625	5295.095234	-2590.160172
249.99	-0.000904	-0.000536	10.455990	-326.472789	5041.752773	-2838.218370
250.50	-0.000937	-0.000532	10.458492	-325.951649	5087.458335	-2783.176104
251.01	-0.000898	-0.000531	10.455550	-326.254809	5026.596181	-2847.889795
251.52	-0.000932	-0.000541	10.458123	-325.558184	5069.888793	-2791.295870
252.03	-0.000896	-0.000545	10.458395	-325.869157	5083.317132	-2785.315020
252.54	-0.000927	-0.000555	10.458387	-325.286809	5069.742372	-2785.476525
253.05	-0.000888	-0.000564	10.457449	-325.604107	5055.409241	-2806.116385
253.56	-0.000913	-0.000576	10.456694	-325.037750	5024.953846	-2822.731550
254.07	-0.000877	-0.000584	10.453694	-325.366028	4963.320303	-2888.732615
254.58	-0.000907	-0.000592	10.453866	-324.944477	4957.594153	-2884.938157
255.09	-0.000869	-0.000601	10.457571	-325.182127	5048.498659	-2803.442348
255.60	-0.000905	-0.000616	10.457868	-324.471731	5039.010145	-2796.894210
256.11	-0.000869	-0.000637	10.457296	-324.394645	5024.025547	-2809.495388
256.62	-0.000899	-0.000662	10.452963	-323.308510	4899.107231	-2904.805646
257.13	-0.000861	-0.000685	10.453263	-323.151008	4902.400395	-2898.205763
257.65	-0.000883	-0.000702	10.454147	-322.079490	4898.112976	-2878.766551
258.16	-0.000847	-0.000715	10.453080	-322.050326	4872.831279	-2902.242475
258.67	-0.000875	-0.000733	10.453553	-320.865163	4856.452764	-2891.841549
259.18	-0.000837	-0.000735	10.455423	-321.102055	4905.043903	-2850.692031
259.69	-0.000864	-0.000723	10.451104	-320.604938	4793.999500	-2945.701879
260.20	-0.000827	-0.000696	10.447240	-321.628392	4728.439127	-3030.713834
260.71	-0.000853	-0.000674	10.446894	-321.407834	4715.366564	-3038.340681
261.22	-0.000808	-0.000663	10.445103	-322.311096	4694.868525	-3077.728195
261.73	-0.000841	-0.000658	10.445090	-321.931018	4685.821341	-3078.012381
262.24	-0.000804	-0.000660	10.445094	-322.461800	4698.118103	-3077.937652
262.75	-0.000838	-0.000668	10.445103	-321.851451	4684.282359	-3077.733248
263.26	-0.000804	-0.000667	10.445100	-322.377295	4696.327142	-3077.790451
263.77	-0.000844	-0.000667	10.445143	-321.867068	4685.571284	-3076.846653
264.28	-0.000804	-0.000661	10.445961	-322.545293	4720.030347	-3058.868842
264.79	-0.000841	-0.000652	10.445495	-322.129666	4699.730522	-3069.106363
265.30	-0.000810	-0.000645	10.457362	-322.805643	4988.971263	-2808.041652
265.81	-0.000841	-0.000630	10.457353	-322.669264	4985.638841	-2808.225778
266.32	-0.000800	-0.000623	10.457468	-323.316402	5003.172444	-2805.710613
266.83	-0.000832	-0.000614	10.457094	-323.046731	4988.352366	-2813.925970
267.34	-0.000792	-0.000612	10.457121	-323.479751	4998.925551	-2813.348643
267.85	-0.000821	-0.000623	10.457395	-322.574034	4984.405192	-2807.311446
268.36	-0.000781	-0.000628	10.457400	-322.939069	4992.914353	-2807.210151
268.87	-0.000818	-0.000639	10.457652	-321.997337	4977.058091	-2801.656447
269.38	-0.000782	-0.000652	10.457290	-322.100265	4971.074998	-2809.623885
269.89	-0.000811	-0.000655	10.456933	-321.433914	4947.515238	-2817.465541
270.40	-0.000775	-0.000652	10.456371	-321.915997	4945.649364	-2829.831266
270.91	-0.000808	-0.000644	10.464349	-321.407630	5117.941937	-2654.317497
271.42	-0.000768	-0.000629	10.458492	-322.296347	5003.320445	-2783.170485
271.93	-0.000798	-0.000610	10.456674	-322.095921	4956.783118	-2823.161602
272.44	-0.000756	-0.000600	10.456654	-322.866886	4974.048258	-2823.621574
272.95	-0.000790	-0.000588	10.457445	-322.534200	4984.653871	-2806.199534
273.46	-0.000752	-0.000578	10.455148	-323.328514	4949.962943	-2856.733372
273.97	-0.000787	-0.000566	10.453312	-323.058886	4901.402920	-2897.134383
274.48	-0.000756	-0.000538	10.491615	-324.314410	5813.689077	-2054.469483
274.99	-0.000792	-0.000515	10.476274	-324.313324	5459.862303	-2391.962814
275.50	-0.000757	-0.000489	10.498652	-325.350988	5999.846868	-1899.654391
276.01	-0.000796	-0.000477	10.532748	-325.208373	6782.919732	-1149.545598
276.52	-0.000756	-0.000476	10.557334	-325.631244	7359.688861	-608.648227
277.03	-0.000794	-0.000489	10.591751	-324.819061	8134.758424	148.528947
277.54	-0.000754	-0.000512	10.605750	-324.559943	8451.645619	456.499116
278.05	-0.000785	-0.000540	10.545400	-323.277275	7030.265336	-871.197217
278.56	-0.000740	-0.000573	10.555772	-322.743983	7257.203580	-643.009349
279.07	-0.000775	-0.000605	10.582083	-321.220637	7828.941389	-64.175246
279.58	-0.000735	-0.000634	10.541024	-320.971649	6876.262077	-967.473448
280.09	-0.000766	-0.000655	10.498521	-319.526171	5862.741477	-1902.535284
280.60	-0.000717	-0.000662	10.492882	-319.917430	5741.684007	-2026.604096
281.11	-0.000743	-0.000654	10.523083	-319.305087	6424.122661	-1362.176234
281.62	-0.000703	-0.000633	10.502397	-320.350963	5971.124384	-1817.259521
282.13	-0.000730	-0.000611	10.501953	-320.273780	5959.091718	-1827.042729
282.64	-0.000688	-0.000587	10.502426	-321.502935	5998.293756	-1816.638176
283.15	-0.000723	-0.000580	10.501926	-320.967404	5974.438146	-1827.634666
283.67	-0.000685	-0.000577	10.500119	-321.652501	5948.530420	-1867.391942
284.18	-0.000723	-0.000597	10.502456	-320.211179	5969.258558	-1815.969893
284.69	-0.000685	-0.000632	10.502603	-319.816313	5963.571530	-1812.724095
285.20	-0.000722	-0.000668	10.472714	-317.955347	5231.380234	-2470.300942
285.71	-0.000686	-0.000699	10.515190	-317.763528	6206.604265	-1535.817713
286.22	-0.000722	-0.000701	10.455089	-316.883358	4800.216516	-2858.050849
286.73	-0.000688	-0.000680	10.457133	-318.220051	4878.139694	-2813.071400
287.24	-0.000724	-0.000641	10.457437	-318.538243	4892.471379	-2806.387383
287.75	-0.000688	-0.000592	10.457786	-320.547616	4946.778204	-2798.706766
288.26	-0.000715	-0.000541	10.458593	-321.377972	4984.496501	-2780.960523
288.77	-0.000679	-0.000499	10.453090	-323.191900	4899.332808	-2902.029879
289.28	-0.000712	-0.000474	10.455928	-323.332271	4968.035552	-2839.576326
289.79	-0.000677	-0.000462	10.457690	-324.297860	5030.881196	-2800.830506
290.30	-0.000706	-0.000457	10.457664	-323.883969	5020.772039	-2801.385221
290.81	-0.000668	-0.000459	10.457540	-324.283526	5027.112554	-2804.110661
291.32	-0.000696	-0.000471	10.457359	-323.278607	4999.797060	-2808.100475
291.83	-0.000652	-0.000479	10.457291	-323.429233	5001.690977	-2809.601391
292.34	-0.000679	-0.000510	10.458104	-321.811611	4983.215723	-2791.704362
292.85	-0.000645	-0.000535	10.458443	-321.536836	4984.705537	-2784.249553
293.36	-0.000674	-0.000563	10.457698	-319.860445	4928.927827	-2800.645053
293.87	-0.000634	-0.000599	10.456892	-319.316431	4897.822702	-2818.370624
294.38	-0.000669	-0.000633	10.457872	-317.343663	4875.000140	-2796.822009
294.89	-0.000639	-0.000674	10.458002	-316.678506	4862.684572	-2793.964012
295.40	-0.000666	-0.000713	10.457419	-314.145755	4790.934838	-2806.790849
295.91	-0.000639	-0.000742	10.457378	-314.146290	4790.003707	-2807.690809
296.42	-0.000668	-0.000758	10.457222	-312.508375	4748.704780	-2811.119787
296.93	-0.000636	-0.000754	10.456831	-313.666371	4766.343717	-2819.721871
297.44	-0.000666	-0.000747	10.456721	-312.893196	4746.009270	-2822.141178
297.95	-0.000632	-0.000744	10.457176	-314.185497	4786.246192	-2812.136053
298.46	-0.000664	-0.000738	10.457461	-313.192301	4769.956638	-2805.865583
298.97	-0.000629	-0.000734	10.457242	-314.411808	4792.985964	-2810.676422
299.48	-0.000661	-0.000732	10.457355	-313.553437	4775.839033	-2808.184356
299.99	-0.000625	-0.000721	10.457291	-314.843812	4804.068266	-2809.591132
300.50	-0.000661	-0.000702	10.457759	-314.323368	4802.883936	-2799.292671
301.01	-0.000628	-0.000681	10.457733	-315.928352	4839.228385	-2799.866661
301.52	-0.000655	-0.000658	10.457367	-315.575442	4822.651064	-2807.930458
302.03	-0.000623	-0.000620	10.457073	-317.607310	4862.654356	-2814.388028
302.54	-0.000651	-0.000573	10.457140	-318.216785	4878.218096	-2812.924904
303.05	-0.000612	-0.000522	10.457001	-320.834170	4935.258073	-2815.988214
303.56	-0.000652	-0.000487	10.457202	-321.252863	4949.547711	-2811.551151
304.07	-0.000615	-0.000475	10.457220	-322.250941	4972.929777	-2811.163246
304.58	-0.000648	-0.000495	10.456796	-320.780961	4929.317273	-2820.486764
305.09	-0.000615	-0.000530	10.457676	-320.328800	4939.192940	-2801.137517
305.60	-0.000642	-0.000572	10.458023	-317.905975	4891.443648	-2793.484027
306.11	-0.000611	-0.000615	10.457498	-317.200772	4863.088282	-2805.047105
306.62	-0.000638	-0.000653	10.457381	-314.664742	4802.022188	-2807.610777
307.13	-0.000599	-0.000675	10.457301	-314.925514	4806.179391	-2809.371381
307.64	-0.000633	-0.000685	10.452855	-313.358764	4667.570757	-2907.187279
308.15	-0.000591	-0.000688	10.452173	-314.410134	4676.048131	-2922.187259
308.66	-0.000618	-0.000685	10.452670	-313.491216	4666.348359	-2911.261779
309.18	-0.000584	-0.000680	10.452477	-314.816973	4692.412587	-2915.510712
309.69	-0.000612	-0.000671	10.454512	-314.052313	4721.749390	-2870.735357
310.20	-0.000585	-0.000659	10.453416	-315.656079	4733.383420	-2894.854002
310.71	-0.000616	-0.000655	10.456020	-314.584831	4768.797595	-2837.549167
311.22	-0.000575	-0.000644	10.457128	-316.094911	4829.092563	-2813.192675
311.73	-0.000615	-0.000656	10.456153	-314.494380	4769.760426	-2834.644527
312.24	-0.000573	-0.000650	10.455181	-315.661575	4774.217532	-2856.022814
312.75	-0.000611	-0.000633	10.454792	-314.886213	4747.399500	-2864.578818
313.26	-0.000579	-0.000604	10.458245	-316.959332	4874.750521	-2788.620767
313.77	-0.000609	-0.000577	10.458294	-316.817048	4872.612245	-2787.536128
314.28	-0.000575	-0.000571	10.458127	-317.880794	4893.247829	-2791.210089
314.79	-0.000610	-0.000564	10.458363	-316.749449	4872.643797	-2786.021648
315.30	-0.000575	-0.000583	10.459691	-316.823723	4904.996134	-2756.791544
315.81	-0.000609	-0.000598	10.459903	-315.049587	4869.030088	-2752.142255
316.32	-0.000572	-0.000610	10.459898	-315.442990	4877.988866	-2752.234996
316.83	-0.000602	-0.000607	10.459900	-314.166826	4848.652896	-2752.195998
317.34	-0.000562	-0.000600	10.459904	-315.594180	4881.589968	-2752.119801
317.85	-0.000588	-0.000574	10.455962	-315.341877	4784.875056	-2838.836430
318.36	-0.000555	-0.000542	10.457632	-317.771863	4879.329427	-2802.094952
318.87	-0.000581	-0.000499	10.458119	-318.363801	4904.197145	-2791.371604
319.38	-0.000541	-0.000450	10.456066	-321.203476	4922.199623	-2836.554154
319.89	-0.000570	-0.000420	10.456850	-321.521154	4947.600926	-2819.299468
320.40	-0.000532	-0.000395	10.457489	-323.283080	5002.889336	-2805.248948
320.91	-0.000570	-0.000400	10.457149	-322.372265	4974.085572	-2812.724825
321.42	-0.000534	-0.000410	10.456557	-322.769284	4969.567961	-2825.752156
321.93	-0.000568	-0.000426	10.453007	-321.353673	4855.104658	-2903.854493
322.44	-0.000539	-0.000435	10.453076	-321.633921	4863.154987	-2902.329089
322.95	-0.000565	-0.000440	10.451595	-320.543895	4803.906217	-2934.911384
323.46	-0.000532	-0.000441	10.453280	-321.308505	4860.362439	-2897.847240
323.97	-0.000565	-0.000448	10.453413	-320.158242	4836.947813	-2894.924445
324.48	-0.000528	-0.000457	10.455577	-320.580418	4896.594172	-2847.297872
324.99	-0.000555	-0.000467	10.457810	-319.160450	4915.395712	-2798.182504
325.50	-0.000519	-0.000481	10.453837	-319.393300	4829.137904	-2885.577321
326.01	-0.000548	-0.000493	10.452564	-317.585997	4758.168225	-2913.589871
326.52	-0.000515	-0.000505	10.454118	-317.947265	4802.325398	-2879.401060
327.03	-0.000540	-0.000512	10.456221	-316.599398	4819.798068	-2833.136564
327.54	-0.000502	-0.000509	10.455266	-317.624789	4821.381069	-2854.142645
328.05	-0.000536	-0.000488	10.456652	-317.217265	4843.951307	-2823.664127
328.56	-0.000491	-0.000451	10.459670	-319.806775	4973.184292	-2757.250073
329.07	-0.000526	-0.000429	10.457661	-319.907269	4929.155658	-2801.455910
329.58	-0.000493	-0.000409	10.457024	-321.485584	4950.796059	-2815.470565
330.09	-0.000527	-0.000405	10.454547	-320.934401	4880.972878	-2869.972046
330.60	-0.000495	-0.000412	10.455349	-321.415698	4910.544581	-2852.332055
331.11	-0.000522	-0.000427	10.454450	-319.914699	4855.273660	-2872.095475
331.62	-0.000482	-0.000443	10.455808	-320.059285	4889.927612	-2842.213793
332.13	-0.000519	-0.000474	10.457140	-317.761789	4867.746225	-2812.923001
332.64	-0.000478	-0.000506	10.456063	-317.424789	4835.149399	-2836.617253
333.15	-0.000518	-0.000542	10.456184	-314.727216	4775.853955	-2833.944633
333.66	-0.000486	-0.000581	10.453352	-314.247325	4699.484775	-2896.255859
334.17	-0.000517	-0.000622	10.456985	-311.119635	4711.274304	-2816.330175
334.69	-0.000482	-0.000659	10.456484	-311.027288	4697.595438	-2827.350697
335.20	-0.000513	-0.000687	10.457208	-308.368148	4653.069301	-2811.433507
335.71	-0.000471	-0.000689	10.458090	-309.545274	4700.512839	-2792.024876
336.22	-0.000500	-0.000675	10.451497	-308.709383	4529.231922	-2937.055635
336.73	-0.000465	-0.000643	10.496487	-311.290666	5626.255430	-1947.280624
337.24	-0.000496	-0.000618	10.501950	-310.692813	5738.472264	-1827.108425
