Length [m]	OTDR [V]	Brillouin intensity [V]	Fitted Frequency [GHz]	Temperature [”]	Compensated Strain [レュ]	Uncompensated Strain [レュ]
0.51	0.006919	0.036507	10.503809	-152.920298	2096.534022	-1786.208492
1.02	0.007044	0.039788	10.476558	-129.213046	922.323605	-2385.716456
1.53	0.006986	0.042532	10.456093	-92.884899	-385.931481	-2835.953531
2.04	0.007042	0.044799	10.444599	-52.730912	-1575.339337	-3088.811650
2.55	0.006971	0.046630	10.437273	-26.942656	-2337.957431	-3250.003741
3.06	0.006911	0.048161	10.433732	-15.748114	-2677.308784	-3327.896594
3.57	0.006863	0.049441	10.432438	-23.729343	-2523.431521	-3356.368655
4.08	0.006852	0.050550	10.431152	-27.026378	-2477.195919	-3384.662452
4.59	0.006836	0.051486	10.430821	-17.386738	-2706.728588	-3391.942135
5.10	0.006878	0.052265	10.431348	5.837574	-3229.185726	-3380.344003
5.61	0.006898	0.052850	10.431880	25.400684	-3667.251658	-3368.639429
6.12	0.006919	0.053269	10.431448	34.771229	-3892.929702	-3378.151108
6.63	0.006881	0.053507	10.430185	25.457460	-3707.651170	-3405.930018
7.14	0.006865	0.053671	10.429849	10.895135	-3380.189960	-3413.330900
7.65	0.006834	0.053790	10.430729	-2.600895	-3049.200348	-3393.951734
8.16	0.006847	0.053915	10.431494	2.024829	-3138.049650	-3377.131257
8.67	0.006872	0.054054	10.431292	18.269573	-3516.661830	-3381.580014
9.18	0.006950	0.054190	10.431102	41.094818	-4046.462817	-3385.750166
9.69	0.006948	0.054244	10.430527	53.391891	-4342.801594	-3398.403109
10.20	0.006948	0.054219	10.430544	55.777145	-4397.325797	-3398.037248
10.71	0.006886	0.054105	10.430380	45.963439	-4175.189994	-3401.635722
11.22	0.006836	0.053999	10.429773	40.204963	-4056.626308	-3414.985106
11.73	0.006798	0.053905	10.428934	41.072787	-4095.973319	-3433.462257
12.24	0.006829	0.053897	10.429113	51.908476	-4341.261797	-3429.507964
12.75	0.006865	0.053921	10.429259	57.337798	-4462.890375	-3426.309939
13.26	0.006924	0.053943	10.428906	58.108789	-4488.779194	-3434.075548
13.77	0.006903	0.053894	10.428835	49.014657	-4281.074311	-3435.638938
14.28	0.006878	0.053822	10.429787	40.180172	-4055.734547	-3414.678839
14.79	0.006815	0.053728	10.431206	30.737782	-3805.655941	-3383.468944
15.30	0.006788	0.053697	10.431159	27.762944	-3738.264949	-3384.507529
15.81	0.006769	0.053718	10.430884	24.622581	-3672.312469	-3390.552981
16.32	0.006797	0.053803	10.430316	25.213866	-3699.032559	-3403.057650
16.83	0.006760	0.053870	10.430619	21.533499	-3607.321811	-3396.389900
17.34	0.006713	0.053887	10.431215	22.440496	-3614.441892	-3383.265420
17.85	0.006568	0.053822	10.430545	24.183350	-3670.026904	-3398.017667
18.36	0.006451	0.053719	10.430342	28.887582	-3782.999051	-3402.484166
18.87	0.006310	0.053588	10.430936	31.718981	-3834.479447	-3389.418115
19.38	0.006249	0.053512	10.431363	33.125681	-3856.994961	-3380.006658
19.89	0.006196	0.053470	10.431689	32.417842	-3833.196135	-3372.847962
20.40	0.006199	0.053468	10.432008	33.485296	-3850.415658	-3365.833996
20.91	0.006157	0.053453	10.432126	35.767413	-3900.222625	-3363.233087
21.42	0.006138	0.053433	10.432865	45.089566	-4097.760117	-3346.963959
21.93	0.006065	0.053386	10.433873	46.232580	-4100.826269	-3324.789835
22.44	0.006034	0.053363	10.434068	50.763204	-4200.631891	-3320.508914
22.95	0.005991	0.053339	10.433739	42.715535	-4022.967755	-3327.749478
23.46	0.006009	0.053361	10.434529	36.798519	-3868.520939	-3310.351066
23.97	0.006032	0.053384	10.433794	35.183174	-3848.300034	-3326.532912
24.48	0.006075	0.053406	10.433274	31.910104	-3784.954839	-3337.979555
24.99	0.006083	0.053384	10.433921	32.773480	-3789.893076	-3323.731658
25.50	0.006097	0.053346	10.433542	37.036438	-3896.764166	-3332.068063
26.02	0.006042	0.053285	10.432801	34.779702	-3861.908926	-3348.374171
26.53	0.006055	0.053250	10.432552	33.261060	-3832.697847	-3353.856787
27.04	0.006018	0.053239	10.433059	30.753931	-3763.298815	-3342.709648
27.55	0.006043	0.053285	10.433135	28.052459	-3699.351608	-3341.030552
28.06	0.006063	0.053349	10.433763	26.449402	-3647.974589	-3327.222580
28.57	0.006095	0.053423	10.434010	33.154154	-3796.616043	-3321.785678
29.08	0.006079	0.053455	10.433881	33.192231	-3800.470633	-3324.626455
29.59	0.006082	0.053470	10.433796	40.757082	-3976.573078	-3326.498185
30.10	0.006024	0.053447	10.433648	38.796532	-3934.836448	-3329.736278
30.61	0.006021	0.053447	10.434290	35.865294	-3852.561046	-3315.619148
31.12	0.006008	0.053442	10.434071	37.843352	-3903.155676	-3320.446285
31.63	0.006032	0.053480	10.433983	36.103241	-3865.123894	-3322.377935
32.14	0.006051	0.053488	10.434905	32.754546	-3766.761953	-3302.082521
32.65	0.006078	0.053474	10.435636	38.506989	-3882.338085	-3286.015764
33.16	0.006043	0.053413	10.436365	33.110099	-3741.282562	-3269.970165
33.67	0.006058	0.053349	10.436982	37.129820	-3819.591017	-3256.401679
34.18	0.006015	0.053271	10.437347	33.584354	-3729.545969	-3248.360605
34.69	0.006023	0.053254	10.437595	35.220630	-3761.509346	-3242.920348
35.20	0.006032	0.053231	10.438188	28.426757	-3591.437465	-3229.871663
35.71	0.006059	0.053266	10.438254	31.714114	-3665.575128	-3228.406296
36.22	0.006070	0.053256	10.437542	28.676845	-3612.087322	-3244.078091
36.73	0.006090	0.053267	10.436918	32.511340	-3714.739782	-3257.798762
37.24	0.006062	0.053223	10.437232	35.446972	-3775.083046	-3250.898226
37.75	0.006057	0.053220	10.438739	38.074256	-3800.795719	-3217.734284
38.26	0.006029	0.053192	10.439900	38.490416	-3783.614859	-3192.207103
38.77	0.006050	0.053226	10.439035	39.570078	-3828.411138	-3211.230663
39.28	0.006045	0.053237	10.438274	37.375769	-3795.458237	-3227.980618
39.79	0.006074	0.053269	10.437883	36.479671	-3783.839497	-3236.574462
40.30	0.006067	0.053248	10.437973	35.183471	-3751.927198	-3234.595866
40.81	0.006073	0.053221	10.437862	37.062445	-3797.733971	-3237.031580
41.32	0.006038	0.053169	10.438958	37.557332	-3783.865040	-3212.934934
41.83	0.006038	0.053119	10.438982	38.941947	-3815.174321	-3212.396845
42.34	0.006014	0.053064	10.439493	37.854944	-3778.363785	-3201.152122
42.85	0.006036	0.053048	10.441073	36.331066	-3706.844019	-3166.391243
43.36	0.006040	0.053032	10.440706	32.018246	-3616.029810	-3174.466464
43.87	0.006065	0.053021	10.440652	32.036216	-3617.700637	-3175.665678
44.38	0.006048	0.052972	10.440640	31.663139	-3609.389817	-3175.930176
44.89	0.006060	0.052924	10.440628	34.690136	-3679.342002	-3176.189396
45.40	0.006035	0.052839	10.441190	36.840714	-3715.887005	-3163.826255
45.91	0.006044	0.052782	10.441278	38.528714	-3752.717881	-3161.893338
46.42	0.006032	0.052740	10.440593	36.524568	-3722.362474	-3176.945340
46.93	0.006055	0.052747	10.439562	34.566671	-3701.072830	-3199.629654
47.44	0.006043	0.052760	10.440171	31.462826	-3615.577734	-3186.231451
47.95	0.006059	0.052806	10.441112	32.965387	-3628.464513	-3165.530126
48.46	0.006036	0.052841	10.441049	34.520942	-3665.730816	-3166.920874
48.97	0.006036	0.052881	10.442207	38.324630	-3726.576782	-3141.438612
49.48	0.006008	0.052900	10.447351	39.923250	-3644.751323	-3028.281479
49.99	0.006022	0.052901	10.466170	41.031300	-3236.233194	-2614.262778
50.50	0.006006	0.052819	10.501977	38.870602	-2360.671790	-1826.506117
51.01	0.006035	0.052626	10.532777	39.532638	-1665.562542	-1148.900517
51.53	0.006028	0.052240	10.555393	39.410106	-1141.151334	-651.352631
52.04	0.006040	0.051694	10.560804	43.727560	-1115.753052	-532.319972
52.55	0.006033	0.051007	10.563353	45.469430	-1097.048099	-476.228239
53.06	0.006037	0.050245	10.564932	48.228862	-1124.151778	-441.489402
53.57	0.006014	0.049451	10.566275	45.788409	-1037.000171	-411.943911
54.08	0.006028	0.048698	10.566696	43.175359	-967.134375	-402.677394
54.59	0.006015	0.047991	10.566544	37.421209	-838.201629	-406.040697
55.10	0.006033	0.047376	10.566956	35.154286	-776.497050	-396.958760
55.61	0.006026	0.046839	10.567211	32.038336	-698.907717	-391.367708
56.12	0.006042	0.046403	10.567394	33.013177	-717.106655	-387.321668
56.63	0.006020	0.046033	10.567550	31.925314	-688.472745	-383.895541
57.14	0.006030	0.045748	10.567868	32.270575	-689.102245	-376.914598
57.65	0.006009	0.045517	10.567741	29.292238	-623.454378	-379.692779
58.16	0.006017	0.045358	10.567472	26.610698	-567.942411	-385.622410
58.67	0.006003	0.045228	10.567826	22.921257	-474.831162	-377.817943
59.18	0.006034	0.045143	10.568291	21.782159	-437.893767	-367.596139
59.69	0.006024	0.045055	10.568509	20.218053	-396.860382	-362.799716
60.20	0.006041	0.044993	10.568173	22.998618	-468.625461	-370.199575
60.71	0.006019	0.044914	10.567763	21.627697	-446.527707	-379.223858
61.22	0.006025	0.044852	10.567857	23.327336	-483.463658	-377.135621
61.73	0.006003	0.044795	10.568336	21.360520	-427.150881	-366.607049
62.24	0.006013	0.044769	10.568219	19.953677	-397.475320	-369.191630
62.75	0.006005	0.044738	10.568350	17.824734	-345.427959	-366.291924
63.26	0.006024	0.044743	10.568434	18.820921	-366.427589	-364.448748
63.77	0.006012	0.044726	10.568004	18.484863	-368.611332	-373.911180
64.28	0.006061	0.044726	10.568017	21.979200	-448.745315	-373.620750
64.79	0.006146	0.044708	10.568338	21.995051	-441.721021	-366.572185
65.30	0.006471	0.044699	10.568549	22.698145	-453.039973	-361.930456
65.81	0.007118	0.044675	10.568796	21.079643	-410.066321	-356.477658
66.32	0.008279	0.044671	10.568579	19.908499	-388.130732	-361.269824
66.83	0.009804	0.044658	10.568445	18.194858	-351.767450	-364.211811
67.34	0.011417	0.044657	10.568812	20.276310	-391.213007	-356.133420
67.85	0.012589	0.044632	10.569737	19.132378	-343.558083	-335.794251
68.36	0.013083	0.044611	10.569208	21.580767	-412.118202	-347.430978
68.87	0.012815	0.044584	10.568777	20.877324	-405.848182	-356.896583
69.38	0.012035	0.044585	10.568957	20.344055	-389.433442	-352.948304
69.89	0.010966	0.044596	10.568976	18.808238	-353.642943	-352.531911
70.40	0.009909	0.044631	10.568573	18.459310	-354.910946	-361.403422
70.91	0.008958	0.044648	10.568921	17.373272	-321.873696	-353.736867
71.42	0.008231	0.044654	10.569080	19.119003	-358.395037	-350.240992
71.93	0.007644	0.044610	10.569214	19.061607	-353.985980	-347.295503
72.44	0.007252	0.044575	10.569359	20.423914	-381.988763	-344.093204
72.95	0.006935	0.044537	10.569532	18.852098	-341.816461	-340.287452
73.46	0.006731	0.044539	10.569343	19.186317	-353.871078	-344.447447
73.97	0.006565	0.044568	10.569047	17.702189	-326.531227	-350.957159
74.48	0.006471	0.044624	10.569272	18.569666	-341.317507	-346.013305
74.99	0.006379	0.044666	10.570300	18.568653	-317.578626	-323.390916
75.50	0.006331	0.044704	10.570085	20.916871	-376.604073	-328.132085
76.01	0.006270	0.044711	10.569103	21.018075	-401.570708	-349.725597
76.52	0.006247	0.044712	10.569009	22.421406	-436.058929	-351.808930
77.03	0.006206	0.044707	10.569237	21.054683	-399.339624	-346.793487
77.55	0.006197	0.044704	10.569840	20.809654	-379.784588	-333.520328
78.06	0.006173	0.044703	10.570048	19.344655	-341.267692	-328.948151
78.57	0.006176	0.044706	10.569509	20.368957	-377.268101	-340.796901
79.08	0.006157	0.044672	10.569573	19.336007	-352.028368	-339.402703
79.59	0.006159	0.044634	10.569668	20.524656	-377.193367	-337.306687
80.10	0.006135	0.044577	10.569243	19.525198	-363.977604	-346.646777
80.61	0.006150	0.044537	10.569460	19.936324	-368.440344	-341.876069
81.12	0.006138	0.044500	10.569778	18.252507	-322.349653	-334.884124
81.63	0.006152	0.044513	10.569240	19.078180	-353.764208	-346.720045
82.14	0.006147	0.044548	10.569318	18.425051	-336.940560	-345.013665
82.65	0.006172	0.044610	10.569252	20.308942	-381.828073	-346.464535
83.16	0.006166	0.044664	10.569605	20.703274	-382.759032	-338.693610
83.67	0.006187	0.044737	10.570073	22.991327	-424.626655	-328.388991
84.18	0.006174	0.044788	10.569488	22.570904	-428.436762	-341.255358
84.69	0.006197	0.044840	10.568866	23.959792	-474.758387	-354.943797
85.20	0.006178	0.044869	10.569319	22.428767	-429.063709	-344.974530
85.71	0.006207	0.044907	10.569060	23.181527	-452.366141	-350.673293
86.22	0.006192	0.044906	10.569482	22.424148	-425.207507	-341.397492
86.73	0.006195	0.044893	10.569990	22.776390	-421.594227	-330.216049
87.24	0.006138	0.044821	10.569846	21.950926	-405.911904	-333.382606
87.75	0.006087	0.044724	10.569684	22.517597	-422.688124	-336.942229
88.26	0.005974	0.044577	10.569485	20.530874	-381.562756	-341.338128
88.77	0.005921	0.044475	10.569959	20.478030	-369.416065	-330.911722
89.28	0.005929	0.044442	10.570288	19.093833	-329.954988	-323.664578
89.79	0.006003	0.044565	10.570202	20.523145	-364.839834	-325.555778
90.30	0.006035	0.044697	10.569823	20.648994	-376.485249	-333.900922
90.81	0.006059	0.044786	10.569617	22.672148	-427.792820	-338.417920
91.32	0.006079	0.044738	10.570031	21.713051	-396.168761	-329.311953
91.83	0.006084	0.044697	10.570751	22.641182	-400.929498	-313.472817
92.34	0.006087	0.044644	10.571148	21.677196	-369.589948	-304.745626
92.85	0.006097	0.044613	10.570867	22.307397	-390.583644	-310.933301
93.36	0.006108	0.044582	10.569600	20.199914	-371.290209	-338.806515
93.87	0.006110	0.044557	10.570017	20.608509	-371.078710	-329.632603
94.38	0.006115	0.044528	10.570764	19.306679	-323.872708	-313.188876
94.89	0.006116	0.044480	10.570769	20.264035	-345.808849	-313.091702
95.40	0.006132	0.044406	10.571389	19.317332	-309.699177	-299.434741
95.91	0.006144	0.044378	10.571665	20.387377	-327.974913	-293.371398
96.42	0.006144	0.044395	10.571270	19.922213	-326.375275	-302.059834
96.93	0.006144	0.044470	10.570473	21.014610	-369.896635	-319.587615
97.44	0.006144	0.044535	10.570302	20.426856	-360.315475	-323.354328
97.95	0.006144	0.044569	10.569537	21.405990	-400.509011	-340.194769
98.46	0.006144	0.044546	10.567242	18.270063	-381.249416	-390.683407
98.97	0.006144	0.044506	10.564157	12.996004	-330.978075	-458.540110
99.48	0.006144	0.044492	10.560169	-4.831437	-12.570413	-546.274523
99.99	0.006144	0.044557	10.554728	-34.930174	554.795874	-665.986102
100.50	0.006144	0.044657	10.547221	-77.170388	1354.026748	-831.130362
101.01	0.006132	0.044772	10.537851	-117.555718	2067.575830	-1037.276309
101.52	0.006131	0.044868	10.528912	-148.655788	2577.324914	-1233.937083
102.03	0.006131	0.044943	10.523352	-166.216027	2853.317959	-1356.263638
102.54	0.006131	0.045010	10.520532	-172.545888	2934.002310	-1418.293106
103.06	0.006131	0.045115	10.518531	-168.638936	2797.913518	-1462.317834
103.57	0.006130	0.045253	10.517883	-156.947299	2513.831593	-1476.573407
104.08	0.006130	0.045432	10.518277	-138.249678	2092.507217	-1467.903872
104.59	0.006130	0.045593	10.520241	-115.877240	1622.795953	-1424.697116
105.10	0.006130	0.045742	10.523892	-91.232538	1139.674895	-1344.386378
105.61	0.006130	0.045816	10.527881	-68.783001	714.907706	-1256.614261
106.12	0.006130	0.045845	10.531675	-47.724571	317.636518	-1173.160282
106.63	0.006131	0.045824	10.534724	-32.033790	26.780535	-1106.062178
107.14	0.006132	0.045799	10.536937	-18.094324	-243.080049	-1057.392835
107.65	0.006131	0.045781	10.537753	-8.452120	-446.214731	-1039.435056
108.16	0.006131	0.045777	10.539426	-0.113684	-599.571989	-1002.623198
108.67	0.006130	0.045748	10.541028	4.639267	-672.037414	-967.380323
109.18	0.006130	0.045707	10.541535	9.300177	-767.645650	-956.234610
109.69	0.006130	0.045635	10.541181	11.371932	-823.502617	-964.024066
110.20	0.006130	0.045576	10.541209	14.329346	-890.918508	-963.391847
110.71	0.006130	0.045510	10.541230	15.109867	-908.420532	-962.947995
111.22	0.006130	0.045495	10.540325	17.361563	-981.113107	-982.845803
111.73	0.006129	0.045482	10.539960	17.789884	-999.403943	-990.888212
112.24	0.006129	0.045491	10.540125	19.233340	-1028.821907	-987.253916
112.75	0.006127	0.045487	10.540982	19.063261	-1005.128967	-968.387794
113.26	0.006127	0.045501	10.541117	20.235583	-1029.004190	-965.419981
113.77	0.006127	0.045517	10.540103	20.244075	-1052.581482	-987.723997
114.28	0.006129	0.045561	10.540319	22.025212	-1088.602804	-982.973707
114.79	0.006129	0.045618	10.541021	21.590365	-1062.421553	-967.547900
115.30	0.006129	0.045663	10.540841	22.650330	-1090.967088	-971.502319
115.81	0.006129	0.045665	10.540596	21.866338	-1078.559389	-976.881898
116.32	0.006129	0.045628	10.540157	21.861795	-1088.584162	-986.544320
116.83	0.006127	0.045544	10.539437	19.747590	-1056.531875	-1002.394397
117.34	0.006129	0.045454	10.539270	19.397081	-1052.308925	-1006.062783
117.85	0.006129	0.045375	10.539684	17.519596	-999.528955	-996.942588
118.36	0.006129	0.045337	10.540195	17.947729	-997.611844	-985.712669
118.87	0.006129	0.045331	10.540022	16.611439	-970.847053	-989.524612
119.38	0.006127	0.045364	10.540174	17.958784	-998.340436	-986.164910
119.89	0.006127	0.045408	10.540228	16.621288	-966.312611	-984.982898
120.40	0.006127	0.045465	10.539913	17.926045	-1003.610481	-991.910932
120.91	0.006127	0.045501	10.540255	18.048306	-998.537074	-984.386720
121.42	0.006127	0.045529	10.540244	21.629044	-1081.213662	-984.624452
121.93	0.006127	0.045506	10.540254	24.475156	-1146.504483	-984.409144
122.44	0.006127	0.045470	10.540252	31.091819	-1298.867307	-984.456384
122.95	0.006127	0.045401	10.539854	33.788814	-1370.140377	-993.221962
123.46	0.006125	0.045353	10.539326	32.918690	-1362.286122	-1004.836440
123.97	0.006123	0.045305	10.539275	27.942060	-1248.904616	-1005.960913
124.48	0.006121	0.045296	10.539600	25.903449	-1194.460412	-998.791292
124.99	0.006118	0.045276	10.540313	24.317965	-1141.532318	-983.117857
125.50	0.006117	0.045262	10.541690	22.954518	-1078.388447	-952.823960
126.01	0.006117	0.045226	10.545891	22.385652	-968.411884	-860.408224
126.52	0.006115	0.045196	10.551391	21.945308	-831.419474	-739.399795
127.03	0.006115	0.045155	10.553523	21.041251	-761.424778	-692.483294
127.54	0.006112	0.045140	10.553652	20.250397	-740.247307	-689.648022
128.05	0.006107	0.045130	10.555985	20.106355	-683.145115	-638.340919
128.56	0.006102	0.045137	10.559918	19.854423	-586.637844	-551.814198
129.08	0.006101	0.045118	10.561244	19.624470	-550.747823	-522.627958
129.59	0.006128	0.045094	10.559329	18.464409	-568.211808	-564.760235
130.10	0.006101	0.045035	10.559309	17.322266	-542.382602	-565.201444
130.61	0.006104	0.044973	10.561239	16.832925	-486.606624	-522.741678
131.12	0.006091	0.044920	10.561314	16.411043	-475.156588	-521.083371
131.63	0.006112	0.044890	10.559513	16.176313	-511.296634	-560.711874
132.14	0.006104	0.044873	10.559942	16.042192	-498.318797	-551.277342
132.65	0.006118	0.044879	10.562460	16.083991	-441.213583	-495.886543
133.16	0.006104	0.044858	10.561967	15.917922	-448.759978	-506.731720
133.67	0.006118	0.044841	10.560732	15.781197	-474.086224	-533.892844
134.18	0.006102	0.044807	10.562394	15.514803	-429.628575	-497.334096
134.69	0.006119	0.044772	10.563369	15.236068	-400.728544	-475.886846
135.20	0.006117	0.044729	10.562115	15.558321	-437.065396	-503.472543
135.71	0.006136	0.044708	10.560687	15.454272	-467.612399	-534.896248
136.22	0.006118	0.044673	10.561906	15.175888	-433.090627	-508.078668
136.73	0.006141	0.044670	10.563486	15.147699	-395.982277	-473.299806
137.24	0.006117	0.044669	10.562137	15.145421	-427.042229	-502.978070
137.75	0.006133	0.044687	10.560766	15.388429	-464.271126	-533.154797
138.26	0.006128	0.044694	10.562319	15.449020	-429.839708	-498.980017
138.77	0.006318	0.044707	10.562838	15.552427	-420.246976	-487.558773
139.28	0.007815	0.044710	10.560787	15.574862	-468.076133	-532.690626
139.79	0.015176	0.044731	10.560934	15.738727	-468.462472	-529.460912
140.30	0.038889	0.044743	10.562797	15.836106	-427.720532	-488.458660
140.81	0.096046	0.044773	10.563287	15.970199	-419.504239	-477.676596
141.32	0.206582	0.044800	10.561773	16.163882	-458.887525	-510.991517
141.83	0.376759	0.044833	10.561475	16.450317	-472.359121	-517.552439
142.34	0.579418	0.044857	10.563898	16.636979	-420.771244	-464.243674
142.85	0.759955	0.044875	10.563990	16.891270	-424.507355	-462.223691
143.36	0.866046	0.044877	10.561448	16.901154	-483.368881	-518.154979
143.87	0.876771	0.044883	10.562162	16.955231	-468.142385	-502.442885
144.38	0.805342	0.044862	10.564903	16.784065	-400.987502	-442.142061
144.89	0.683069	0.044864	10.564054	16.803585	-421.010619	-460.813593
145.40	0.543593	0.044864	10.561799	16.797689	-472.871099	-510.413031
145.91	0.412733	0.044892	10.562704	17.053726	-457.908447	-490.517872
146.42	0.304073	0.044927	10.564471	17.353972	-424.064762	-451.641237
146.93	0.220251	0.044965	10.563972	17.735361	-444.350695	-462.617327
147.44	0.158032	0.044991	10.561822	17.947857	-498.834374	-509.923475
147.95	0.112732	0.045017	10.560843	18.154399	-526.159926	-531.454109
148.46	0.079826	0.045016	10.561791	18.062472	-502.190147	-510.607783
148.97	0.055810	0.045022	10.560712	18.107575	-528.092834	-534.326099
149.48	0.038518	0.045012	10.559949	18.028954	-543.901754	-551.132713
149.99	0.025970	0.045001	10.561575	17.940316	-504.355074	-515.355309
150.50	0.017141	0.044981	10.563364	17.782884	-459.476554	-476.002439
151.01	0.010951	0.044947	10.562268	17.594220	-480.391611	-500.096210
151.52	0.006388	0.044899	10.560731	17.130016	-505.153429	-533.909879
152.03	0.002908	0.044866	10.561902	16.868554	-472.137966	-508.157598
152.54	0.000081	0.044826	10.562450	16.526779	-451.635499	-496.105074
153.05	-0.002246	0.044818	10.559716	16.482865	-513.669428	-556.243852
153.56	-0.004150	0.044821	10.553974	16.593188	-648.648698	-682.578731
154.07	-0.005616	0.044854	10.548916	16.849828	-771.199866	-793.845459
154.59	-0.006607	0.044883	10.545792	17.084861	-848.667999	-862.581704
155.10	-0.007097	0.044921	10.543722	17.389027	-903.398476	-908.110344
155.61	-0.007072	0.044957	10.541804	17.673913	-954.191916	-950.306782
156.12	-0.006536	0.044991	10.540679	17.948712	-986.458874	-975.052195
156.63	-0.005571	0.045014	10.539731	18.126391	-1012.415578	-995.910863
157.14	-0.004257	0.045053	10.539617	18.486487	-1023.349302	-998.433390
157.65	-0.002716	0.045081	10.539741	18.828038	-1028.336116	-995.690382
158.16	-0.001094	0.045120	10.539600	19.262208	-1041.600076	-998.809190
158.67	0.000455	0.045142	10.539599	19.546110	-1048.152320	-998.825324
159.18	0.001792	0.045166	10.539766	19.873740	-1051.835379	-995.144311
159.69	0.002742	0.045173	10.538980	19.983650	-1072.497511	-1012.440557
160.20	0.003274	0.045169	10.538071	19.975077	-1093.257232	-1032.431631
160.71	0.003281	0.045135	10.538675	19.794519	-1075.186892	-1019.159031
161.22	0.002838	0.045110	10.538676	19.600421	-1070.684000	-1019.125818
161.73	0.001943	0.045076	10.538250	19.536733	-1079.041485	-1028.496564
162.24	0.000744	0.045067	10.538831	19.776567	-1071.170256	-1015.721745
162.75	-0.000674	0.045055	10.539841	19.942326	-1051.692162	-993.501644
163.26	-0.002131	0.045059	10.539494	20.054886	-1062.274687	-1001.124720
163.77	-0.003485	0.045052	10.539206	18.376700	-1030.291962	-1007.466811
164.28	-0.004614	0.045050	10.538971	19.992769	-1072.910105	-1012.633894
164.79	-0.005405	0.045046	10.538943	19.767555	-1068.378935	-1013.256982
165.30	-0.005784	0.045069	10.539495	20.693032	-1076.941753	-1001.102944
165.81	-0.005725	0.045085	10.539496	19.603309	-1051.851190	-1001.097681
166.32	-0.005256	0.045119	10.539400	20.362611	-1071.531821	-1003.197953
166.83	-0.004424	0.045138	10.539236	19.672711	-1059.424674	-1006.798103
167.34	-0.003340	0.045158	10.539423	20.653702	-1077.711540	-1002.700872
167.85	-0.002109	0.045139	10.539490	19.693295	-1054.042327	-1001.211855
168.36	-0.000876	0.045119	10.539316	20.464924	-1075.816264	-1005.038263
168.87	0.000244	0.045072	10.539540	19.058231	-1038.274111	-1000.115570
169.38	0.001162	0.045044	10.539912	18.977936	-1027.851208	-991.936276
169.89	0.001768	0.045030	10.539921	17.759683	-999.598085	-991.736568
170.40	0.002074	0.045051	10.540382	18.952526	-1016.422083	-981.591940
170.91	0.002019	0.045092	10.539972	17.930671	-1002.368238	-990.624379
171.42	0.001672	0.045137	10.539482	19.705764	-1054.528503	-1001.401829
171.93	0.001053	0.045169	10.539460	19.026404	-1039.400523	-1001.888924
172.44	0.000285	0.045198	10.539267	19.533256	-1055.504825	-1006.121161
172.95	-0.000578	0.045188	10.539656	8.680113	-796.700853	-997.566230
173.46	-0.001415	0.045158	10.540122	-58.431508	758.920353	-987.326394
173.97	-0.002133	0.045112	10.540725	-195.385738	3925.486329	-974.041869
174.48	-0.002702	0.045067	10.540572	-283.927155	5960.141381	-977.416863
174.99	-0.003032	0.045024	10.540479	-317.615719	6733.487442	-979.470780
175.50	-0.003121	0.044958	10.540809	-329.875963	7023.332228	-972.203780
176.01	-0.003052	0.044770	10.541635	-334.699104	7153.401292	-954.039499
176.52	-0.002704	0.044320	10.541961	-336.765943	7208.514898	-946.851187
177.03	-0.002253	0.043326	10.543381	-337.716881	7263.142815	-915.622575
177.54	-0.001699	0.041567	10.547028	-338.156983	7357.387288	-835.386306
178.05	-0.001188	0.038873	10.548120	-338.335586	7386.683031	-811.362819
178.56	-0.000612	0.035313	10.554071	-338.359429	7524.482489	-680.438764
179.07	-0.000172	0.031092	10.564998	-338.277959	7774.613108	-440.048921
179.58	0.000058	0.026533	10.568571	-338.117217	7853.316685	-361.443517
180.09	0.000308	0.021943	10.569890	-337.904624	7878.842891	-332.425707
180.61	0.000334	0.017601	10.569890	-337.674245	7873.557134	-332.409026
181.12	0.000184	0.013681	10.569911	-337.467804	7869.270149	-331.965248
181.63	0.000011	0.010315	10.569916	-337.313742	7865.845882	-331.848703
182.14	-0.000134	0.007510	10.569904	-337.247841	7864.062305	-332.102961
182.65	-0.000525	0.005270	10.567226	-337.277035	7802.956094	-391.033552
183.16	-0.000800	0.003510	10.569880	-337.430020	7867.689166	-332.643685
183.67	-0.000874	0.002169	10.569903	-337.750999	7875.621909	-332.124837
184.18	-0.001167	0.001157	10.569912	-338.324559	7889.021214	-331.937725
184.69	-0.001225	0.000414	10.569914	-339.321324	7912.018786	-331.887753
185.20	-0.001256	-0.000130	10.569913	-341.080764	7952.487067	-331.919650
185.71	-0.001218	-0.000504	10.569911	-344.354435	8027.809470	-331.954343
186.22	-0.001193	-0.000764	10.569920	-353.320686	8234.422154	-331.751497
186.73	-0.001078	-0.000930	10.569922	-898.012647	20773.075753	-331.721936
187.24	-0.000968	-0.001039	10.569921	-317.918147	7419.473106	-331.746448
187.75	-0.000926	-0.001100	10.569924	-327.558814	7641.481108	-331.667141
188.26	-0.000822	-0.001157	10.569924	-330.440368	7707.802946	-331.677208
188.77	-0.000804	-0.001179	10.569931	-331.787627	7738.975150	-331.525768
189.28	-0.000707	-0.001200	10.569931	-332.247023	7749.557990	-331.518416
189.79	-0.000845	-0.001186	10.569926	-332.312009	7750.940166	-331.626952
190.30	-0.000773	-0.001172	10.569934	-331.747687	7738.135467	-331.449702
190.81	-0.000820	-0.001138	10.569936	-330.529045	7710.130006	-331.404621
191.32	-0.000806	-0.001100	10.569933	-327.889146	7649.283584	-331.477932
191.83	-0.000801	-0.001054	10.569936	-321.560123	7503.666914	-331.406134
192.34	-0.000748	-0.001024	10.569936	-294.793260	6887.507451	-331.401775
192.85	-0.000728	-0.000993	10.569934	-446.971092	10390.527189	-331.460817
193.36	-0.000586	-0.000990	10.569931	-367.484793	8560.712982	-331.524527
193.87	-0.000520	-0.000987	10.569932	-358.069109	8344.008570	-331.485039
194.38	-0.000413	-0.001017	10.569924	-355.667034	8288.517017	-331.672567
194.89	-0.000316	-0.001042	10.569921	-356.008092	8296.295465	-331.741818
195.40	-0.000340	-0.001083	10.569938	-359.125976	8368.456254	-331.371549
195.91	-0.000229	-0.001112	10.569936	-368.445081	8582.945874	-331.403006
196.42	-0.000381	-0.001147	10.569928	-415.770341	9672.170442	-331.581137
196.93	-0.000326	-0.001151	10.569933	-257.178584	6021.558365	-331.470573
197.44	-0.000527	-0.001150	10.569937	-314.161092	7333.371241	-331.379913
197.95	-0.000553	-0.001124	10.569937	-324.751784	7577.165748	-331.379534
198.46	-0.000698	-0.001097	10.569935	-328.898337	7672.568714	-331.426522
198.97	-0.000820	-0.001056	10.569938	-330.960685	7720.111153	-331.361751
199.48	-0.000846	-0.001039	10.569938	-331.730155	7737.827417	-331.358587
199.99	-0.000966	-0.001012	10.569937	-331.871868	7741.066932	-331.380218
200.50	-0.000929	-0.001002	10.569936	-331.197721	7725.512096	-331.414749
201.01	-0.000920	-0.000966	10.569939	-329.838298	7694.283508	-331.352869
201.52	-0.000848	-0.000924	10.569940	-326.989494	7628.733032	-331.326148
202.03	-0.000768	-0.000852	10.569937	-320.775807	7485.625163	-331.393795
202.54	-0.000637	-0.000785	10.569924	-296.729234	6931.786785	-331.674716
203.05	-0.000543	-0.000713	10.569934	-483.508298	11231.613799	-331.448770
203.56	-0.000395	-0.000676	10.569939	-368.898925	8593.457537	-331.341647
204.07	-0.000312	-0.000665	10.569934	-358.857368	8362.190871	-331.449880
204.58	-0.000233	-0.000689	10.569941	-356.723565	8313.225567	-331.302878
205.09	-0.000160	-0.000714	10.569943	-357.755532	8337.033540	-331.252840
205.60	-0.000206	-0.000748	10.569943	-362.340791	8442.585898	-331.251639
206.12	-0.000152	-0.000765	10.569943	-375.971770	8756.371500	-331.246756
206.63	-0.000296	-0.000799	10.569942	-477.580476	11095.339208	-331.275306
207.14	-0.000291	-0.000820	10.569945	-271.235959	6345.428102	-331.209418
207.65	-0.000455	-0.000847	10.569943	-311.274440	7267.054845	-331.252704
208.16	-0.000494	-0.000866	10.569941	-320.683939	7483.606769	-331.301861
208.67	-0.000602	-0.000883	10.569932	-324.541931	7572.203800	-331.504682
209.18	-0.000674	-0.000889	10.569934	-326.187481	7610.135389	-331.455463
209.69	-0.000700	-0.000884	10.569945	-326.664405	7621.361406	-331.219493
210.20	-0.000752	-0.000848	10.569941	-326.934203	7627.493324	-331.294598
210.71	-0.000728	-0.000803	10.569942	-325.996920	7605.941879	-331.271225
211.22	-0.000720	-0.000729	10.569941	-324.707777	7576.236123	-331.299969
211.73	-0.000645	-0.000681	10.569935	-320.925255	7489.026322	-331.431064
212.24	-0.000602	-0.000632	10.569942	-314.551486	7342.470218	-331.272847
212.75	-0.000494	-0.000622	10.569946	-290.883349	6797.719728	-331.194688
213.26	-0.000436	-0.000613	10.569944	-166.826469	3941.942913	-331.223192
213.77	-0.000368	-0.000634	10.569942	-876.328745	20274.384719	-331.278393
214.28	-0.000297	-0.000633	10.569946	-440.921730	10251.553250	-331.193443
214.79	-0.000277	-0.000646	10.569946	-434.987069	10114.949074	-331.184200
215.30	-0.000242	-0.000643	10.569947	-510.974382	11864.163988	-331.171824
215.81	-0.000294	-0.000639	10.569947	-3104.256947	71560.640633	-331.172676
216.32	-0.000245	-0.000647	10.569946	-105.187322	2523.062581	-331.192898
216.83	-0.000341	-0.000643	10.569946	-280.770654	6564.929290	-331.194368
217.34	-0.000355	-0.000655	10.569949	-300.541511	7020.115379	-331.129767
217.85	-0.000403	-0.000651	10.569949	-304.140913	7102.978667	-331.123777
218.36	-0.000418	-0.000668	10.569947	-312.539408	7296.266211	-331.164722
218.87	-0.000502	-0.000682	10.569946	-313.315075	7314.103403	-331.182270
219.38	-0.000489	-0.000701	10.569946	-313.236215	7312.290576	-331.179884
219.89	-0.000513	-0.000700	10.569948	-312.436668	7293.911551	-331.154819
220.40	-0.000571	-0.000679	10.569948	-312.700617	7299.994541	-331.148165
220.91	-0.000513	-0.000643	10.569945	-311.371473	7269.332384	-331.210852
221.42	-0.000514	-0.000577	10.569935	-311.381904	7269.336932	-331.435575
221.93	-0.000501	-0.000519	10.569936	-313.125889	7309.513586	-331.406270
222.44	-0.000455	-0.000454	10.569949	-313.557437	7319.738884	-331.128491
222.95	-0.000422	-0.000427	10.569948	-314.549512	7342.570791	-331.133565
223.46	-0.000395	-0.000411	10.569947	-312.157357	7287.463165	-331.172693
223.97	-0.000355	-0.000433	10.569945	-315.490372	7364.147293	-331.211564
224.48	-0.000333	-0.000462	10.569934	-311.361919	7268.861671	-331.450093
224.99	-0.000328	-0.000517	10.569939	-309.724710	7231.281730	-331.347011
225.50	-0.000287	-0.000556	10.569946	-306.838719	7165.016120	-331.185883
226.01	-0.000327	-0.000601	10.569949	-303.835924	7095.960608	-331.121202
226.52	-0.000286	-0.000605	10.569948	-301.004929	7030.769881	-331.142376
227.03	-0.000342	-0.000613	10.569945	-299.370867	6993.089134	-331.204564
227.54	-0.000347	-0.000581	10.569946	-292.095540	6825.637240	-331.182022
228.05	-0.000363	-0.000561	10.569947	-287.799564	6726.755537	-331.172294
228.56	-0.000389	-0.000535	10.569947	-277.232597	6483.511182	-331.168840
229.07	-0.000400	-0.000532	10.569945	-258.263353	6046.813298	-331.199723
229.58	-0.000399	-0.000523	10.569946	-265.391454	6210.923446	-331.177113
230.09	-0.000433	-0.000538	10.569949	-225.535319	5293.496673	-331.131501
230.60	-0.000403	-0.000532	10.569948	-272.447457	6373.388692	-331.140412
231.11	-0.000434	-0.000550	10.569947	-258.103055	6043.147362	-331.176772
231.62	-0.000411	-0.000551	10.569944	-289.514562	6766.170958	-331.232620
232.14	-0.000402	-0.000567	10.569946	-290.387002	6786.307070	-331.182210
232.65	-0.000398	-0.000554	10.569949	-301.773544	7048.490080	-331.116663
233.16	-0.000371	-0.000536	10.569947	-308.564589	7204.768094	-331.163908
233.67	-0.000343	-0.000494	10.569943	-311.973899	7283.152715	-331.255994
234.18	-0.000339	-0.000464	10.569949	-317.068259	7400.563019	-331.122561
234.69	-0.000304	-0.000421	10.569949	-318.402089	7431.276027	-331.114268
235.20	-0.000313	-0.000414	10.569948	-318.520095	7433.970533	-331.135203
235.71	-0.000293	-0.000414	10.569945	-316.694667	7391.863445	-331.217575
236.22	-0.000311	-0.000442	10.569943	-312.398934	7292.948164	-331.245216
236.73	-0.000306	-0.000459	10.569949	-305.344404	7130.676476	-331.129625
237.24	-0.000313	-0.000490	10.569943	-296.429046	6925.324619	-331.247298
237.75	-0.000329	-0.000499	10.569943	-278.820039	6519.956830	-331.261108
238.26	-0.000332	-0.000514	10.569949	-260.037357	6087.741537	-331.112656
238.77	-0.000344	-0.000495	10.569950	-236.757760	5551.869187	-331.097399
239.28	-0.000365	-0.000489	10.569952	-191.232724	4503.936246	-331.061321
239.79	-0.000352	-0.000453	10.569950	-233.432101	5475.312386	-331.098608
240.30	-0.000380	-0.000434	10.569950	-201.366624	4737.179510	-331.095314
240.81	-0.000355	-0.000418	10.569953	-271.726917	6356.903092	-331.044091
241.32	-0.000373	-0.000413	10.569952	-271.323108	6347.594747	-331.056311
241.83	-0.000351	-0.000416	10.569952	-295.909924	6913.581607	-331.049841
242.34	-0.000348	-0.000445	10.569951	-296.522205	6927.646809	-331.077795
242.85	-0.000330	-0.000460	10.569944	-303.127103	7079.529331	-331.230383
243.36	-0.000318	-0.000497	10.569953	-304.471457	7110.671523	-331.043784
243.87	-0.000293	-0.000509	10.569955	-305.003444	7122.964294	-330.999320
244.38	-0.000297	-0.000520	10.569953	-306.757012	7163.303993	-331.024922
244.89	-0.000282	-0.000497	10.569953	-307.141556	7172.152490	-331.028342
245.40	-0.000290	-0.000471	10.569953	-308.558327	7204.766578	-331.027849
245.91	-0.000278	-0.000404	10.569953	-309.926880	7236.268050	-331.029899
246.42	-0.000300	-0.000362	10.569954	-311.166218	7264.812871	-331.014937
246.93	-0.000287	-0.000307	10.569952	-310.162241	7241.669183	-331.045915
247.44	-0.000310	-0.000288	10.569953	-308.189330	7196.265912	-331.034040
247.95	-0.000308	-0.000285	10.569953	-302.746468	7070.966667	-331.040151
248.46	-0.000320	-0.000316	10.569953	-288.600017	6745.315943	-331.044230
248.97	-0.000317	-0.000347	10.569955	-279.239399	6529.892002	-330.992455
249.48	-0.000332	-0.000402	10.569954	-259.446501	6074.242014	-331.015576
249.99	-0.000313	-0.000423	10.569953	-270.425385	6326.955724	-331.031257
250.50	-0.000328	-0.000443	10.569954	-252.399576	5912.020678	-331.018934
251.01	-0.000301	-0.000425	10.569954	-279.516499	6536.254710	-331.007748
251.52	-0.000314	-0.000413	10.569953	-283.774846	6634.262456	-331.024866
252.03	-0.000289	-0.000378	10.569941	-294.729526	6886.144139	-331.302729
252.54	-0.000293	-0.000371	10.569953	-297.205485	6943.424190	-331.031532
253.05	-0.000285	-0.000348	10.569953	-306.625188	7160.255759	-331.037974
253.56	-0.000284	-0.000360	10.569949	-304.545490	7112.285137	-331.130212
254.07	-0.000264	-0.000369	10.569952	-305.383825	7131.657815	-331.059151
254.58	-0.000286	-0.000399	10.569954	-306.386038	7154.780535	-331.009435
255.09	-0.000274	-0.000415	10.569954	-301.021104	7031.273158	-331.017475
255.60	-0.000273	-0.000463	10.569942	-296.558203	6928.267086	-331.276584
256.11	-0.000272	-0.000503	10.569945	-291.507175	6812.057586	-331.216069
256.62	-0.000287	-0.000561	10.569930	-280.341753	6554.697898	-331.536084
257.13	-0.000268	-0.000600	10.569930	-271.042021	6340.621264	-331.536085
257.65	-0.000293	-0.000647	10.569949	-260.587724	6100.396842	-331.125969
258.16	-0.000289	-0.000647	10.569947	-251.516966	5891.558365	-331.157205
258.67	-0.000299	-0.000642	10.569946	-246.436975	5774.582058	-331.192156
259.18	-0.000288	-0.000600	10.569943	-251.294730	5886.348759	-331.246677
259.69	-0.000301	-0.000555	10.569945	-246.046510	5765.586358	-331.199145
260.20	-0.000282	-0.000479	10.569946	-268.959285	6293.033873	-331.196031
260.71	-0.000291	-0.000423	10.569947	-268.283931	6277.525282	-331.159947
261.22	-0.000280	-0.000371	10.569948	-287.593891	6722.055030	-331.139847
261.73	-0.000280	-0.000342	10.569946	-292.394878	6832.519008	-331.190506
262.24	-0.000270	-0.000324	10.569931	-296.981667	6937.757673	-331.522128
262.75	-0.000272	-0.000346	10.569945	-297.152522	6942.017985	-331.209925
263.26	-0.000262	-0.000363	10.569948	-296.234759	6920.963988	-331.140665
263.77	-0.000266	-0.000414	10.569946	-289.895313	6774.987536	-331.183189
264.28	-0.000252	-0.000447	10.569945	-290.005712	6777.507975	-331.203132
264.79	-0.000266	-0.000482	10.569945	-282.121518	6596.014828	-331.204758
265.30	-0.000256	-0.000490	10.569940	-285.290156	6668.841603	-331.313684
265.81	-0.000266	-0.000491	10.569937	-282.122621	6595.861348	-331.375377
266.32	-0.000258	-0.000461	10.569912	-284.555754	6651.282199	-331.937267
266.83	-0.000263	-0.000442	10.569939	-286.244807	6690.780768	-331.348573
267.34	-0.000259	-0.000410	10.569934	-286.501459	6696.581191	-331.451233
267.85	-0.000267	-0.000409	10.569926	-282.373323	6601.363578	-331.631839
268.36	-0.000263	-0.000399	10.569934	-282.981638	6615.552616	-331.454553
268.87	-0.000273	-0.000407	10.569939	-275.077132	6433.716016	-331.337774
269.38	-0.000257	-0.000400	10.569940	-278.203251	6505.702933	-331.314190
269.89	-0.000274	-0.000404	10.569938	-273.148716	6389.307657	-331.353875
270.40	-0.000253	-0.000377	10.569936	-281.364205	6578.366748	-331.409828
270.91	-0.000267	-0.000369	10.569936	-281.719115	6586.539797	-331.406835
271.42	-0.000245	-0.000336	10.569942	-288.107743	6733.749237	-331.268129
271.93	-0.000254	-0.000331	10.569944	-291.315290	6807.612413	-331.242808
272.44	-0.000242	-0.000318	10.569941	-293.863810	6866.209588	-331.308514
272.95	-0.000244	-0.000333	10.569937	-293.255927	6852.131301	-331.389630
273.46	-0.000236	-0.000333	10.569941	-296.058526	6916.741570	-331.298631
273.97	-0.000244	-0.000349	10.569943	-292.049603	6824.495527	-331.262396
274.48	-0.000228	-0.000340	10.569940	-296.894205	6935.952157	-331.323869
274.99	-0.000243	-0.000348	10.569943	-292.743766	6840.493507	-331.244653
275.50	-0.000225	-0.000341	10.569942	-295.781417	6910.384626	-331.277625
276.01	-0.000240	-0.000349	10.569942	-292.003835	6823.438339	-331.265848
276.52	-0.000229	-0.000353	10.569944	-290.958834	6799.421161	-331.229232
277.03	-0.000238	-0.000381	10.569943	-284.264080	6645.281637	-331.256497
277.54	-0.000231	-0.000386	10.569941	-281.239045	6575.610164	-331.291031
278.05	-0.000236	-0.000411	10.569935	-272.028585	6363.437998	-331.434610
278.56	-0.000223	-0.000413	10.569935	-272.532741	6375.055597	-331.423074
279.07	-0.000239	-0.000416	10.569939	-268.629338	6285.294741	-331.333271
279.58	-0.000220	-0.000379	10.569942	-276.795499	6473.333804	-331.279042
280.09	-0.000238	-0.000356	10.569943	-277.875931	6498.225080	-331.259885
280.60	-0.000215	-0.000311	10.569944	-289.821279	6773.240688	-331.223840
281.11	-0.000229	-0.000297	10.569943	-290.044886	6778.365865	-331.245003
281.62	-0.000222	-0.000285	10.569940	-295.685962	6908.149955	-331.313238
282.13	-0.000229	-0.000293	10.569940	-294.003608	6869.418806	-331.317000
282.64	-0.000216	-0.000294	10.569937	-295.758210	6909.727300	-331.395066
283.15	-0.000229	-0.000306	10.569932	-293.381405	6854.916403	-331.488222
283.67	-0.000216	-0.000299	10.569947	-296.570105	6928.651186	-331.171520
284.18	-0.000224	-0.000303	10.569945	-293.104047	6848.825141	-331.208324
284.69	-0.000211	-0.000278	10.569942	-299.166375	6988.299210	-331.283359
285.20	-0.000220	-0.000278	10.569947	-295.316544	6899.788926	-331.176973
285.71	-0.000213	-0.000263	10.569947	-299.667152	6999.956360	-331.159876
286.22	-0.000224	-0.000280	10.569946	-293.082876	6848.364928	-331.182438
286.73	-0.000215	-0.000294	10.569938	-291.641748	6814.995642	-331.368472
287.24	-0.000228	-0.000327	10.569943	-284.426084	6649.006940	-331.260281
287.75	-0.000208	-0.000334	10.569947	-283.112402	6618.875885	-331.155872
288.26	-0.000220	-0.000341	10.569948	-277.522622	6490.216820	-331.140838
288.77	-0.000208	-0.000327	10.569949	-284.628996	6653.827232	-331.117835
289.28	-0.000216	-0.000329	10.569946	-281.856551	6589.936094	-331.184983
289.79	-0.000204	-0.000322	10.569942	-282.961191	6615.267240	-331.277788
290.30	-0.000213	-0.000338	10.569945	-279.906367	6545.010275	-331.216708
290.81	-0.000202	-0.000345	10.569950	-281.818810	6589.164768	-331.092029
291.32	-0.000207	-0.000350	10.569952	-276.871907	6475.327498	-331.055069
291.83	-0.000194	-0.000325	10.569950	-286.325863	6692.909037	-331.098275
292.34	-0.000204	-0.000304	10.569950	-289.189285	6758.831168	-331.091470
292.85	-0.000195	-0.000275	10.569949	-295.538197	6904.947883	-331.122999
293.36	-0.000203	-0.000274	10.569948	-294.150769	6872.981375	-331.150091
293.87	-0.000203	-0.000269	10.569948	-296.820316	6934.447747	-331.136443
294.38	-0.000208	-0.000287	10.569951	-290.972874	6799.912792	-331.068546
294.89	-0.000200	-0.000283	10.569953	-293.057026	6847.929742	-331.029932
295.40	-0.000206	-0.000293	10.569953	-289.411470	6763.995526	-331.044031
295.91	-0.000190	-0.000281	10.569953	-291.423221	6810.305594	-331.043795
296.42	-0.000202	-0.000290	10.569952	-288.082349	6733.392812	-331.050503
296.93	-0.000188	-0.000276	10.569950	-291.087548	6802.509126	-331.109975
297.44	-0.000200	-0.000277	10.569951	-288.776945	6749.349360	-331.081807
297.95	-0.000189	-0.000267	10.569952	-291.565973	6813.589195	-331.046171
298.46	-0.000203	-0.000270	10.569952	-288.188807	6735.844146	-331.049843
298.97	-0.000185	-0.000257	10.569951	-293.457250	6857.096384	-331.074178
299.48	-0.000202	-0.000248	10.569951	-293.086788	6848.568872	-331.073790
299.99	-0.000185	-0.000211	10.569951	-301.845247	7050.177472	-331.081552
300.50	-0.000204	-0.000188	10.569946	-304.898265	7120.334581	-331.198238
301.01	-0.000193	-0.000162	10.569949	-310.509628	7249.592519	-331.115925
301.52	-0.000197	-0.000171	10.569951	-308.293710	7198.633676	-331.067447
302.03	-0.000186	-0.000190	10.569952	-305.766899	7140.470156	-331.064768
302.54	-0.000193	-0.000235	10.569951	-296.912776	6936.642423	-331.073222
303.05	-0.000176	-0.000269	10.569952	-292.391070	6832.574035	-331.054393
303.56	-0.000191	-0.000307	10.569953	-282.026299	6594.011793	-331.024584
304.07	-0.000181	-0.000304	10.569953	-286.461018	6696.086224	-331.035349
304.58	-0.000197	-0.000301	10.569952	-282.410894	6602.824713	-331.063051
305.09	-0.000185	-0.000252	10.569952	-294.564294	6882.588894	-331.065855
305.60	-0.000194	-0.000204	10.569953	-299.901404	7005.478565	-331.036056
306.11	-0.000193	-0.000145	10.569952	-312.572298	7297.146723	-331.047029
306.62	-0.000198	-0.000104	10.569950	-319.624582	7459.439004	-331.093656
307.13	-0.000187	-0.000060	10.569950	-328.561720	7665.163885	-331.098407
307.64	-0.000200	-0.000038	10.569942	-332.744005	7761.251424	-331.277009
308.15	-0.000184	0.000007	10.569953	-341.878891	7971.799434	-331.023209
308.66	-0.000200	0.000036	10.569953	-348.178987	8116.820127	-331.028328
309.18	-0.000183	0.000077	10.569952	-355.914490	8294.869412	-331.046779
309.69	-0.000193	0.000083	10.569954	-358.545103	8355.460154	-331.013458
310.20	-0.000180	0.000078	10.569954	-356.429678	8306.775602	-331.002197
310.71	-0.000181	0.000025	10.569953	-345.741806	8060.721530	-331.024045
311.22	-0.000161	-0.000030	10.569954	-334.268768	7796.631173	-331.009695
311.73	-0.000178	-0.000102	10.569955	-318.930789	7443.567938	-330.998434
312.24	-0.000163	-0.000140	10.569955	-311.518339	7272.942004	-330.992602
312.75	-0.000175	-0.000190	10.569955	-298.946103	6983.530133	-330.995744
313.26	-0.000165	-0.000209	10.569954	-297.799794	6957.134511	-331.003343
313.77	-0.000180	-0.000230	10.569953	-289.534990	6766.840003	-331.042988
314.28	-0.000165	-0.000230	10.569954	-293.358559	6854.890396	-331.011379
314.79	-0.000179	-0.000230	10.569956	-288.336792	6739.327333	-330.976746
315.30	-0.000165	-0.000216	10.569955	-294.571761	6882.839660	-330.990599
315.81	-0.000181	-0.000219	10.569953	-292.345964	6831.562074	-331.029230
316.32	-0.000167	-0.000205	10.569955	-296.881282	6936.006601	-330.988154
316.83	-0.000177	-0.000211	10.569953	-292.946592	6845.391763	-331.025961
317.34	-0.000159	-0.000191	10.569956	-299.755498	7002.198918	-330.960643
317.85	-0.000168	-0.000182	10.569957	-299.365294	6993.231823	-330.946073
318.36	-0.000158	-0.000162	10.569956	-305.107268	7125.390109	-330.965144
318.87	-0.000173	-0.000159	10.569955	-303.718179	7093.399159	-330.979066
319.38	-0.000162	-0.000146	10.569956	-308.014773	7192.321187	-330.963911
319.89	-0.000175	-0.000152	10.569956	-305.622491	7137.240887	-330.974192
320.40	-0.000166	-0.000147	10.569956	-308.454019	7202.429444	-330.966801
320.91	-0.000178	-0.000170	10.569957	-301.955698	7052.863897	-330.944299
321.42	-0.000158	-0.000180	10.569956	-301.989856	7053.636154	-330.957700
321.93	-0.000172	-0.000205	10.569957	-292.484712	6834.837952	-330.951077
322.44	-0.000159	-0.000210	10.569957	-293.924400	6867.990444	-330.940216
322.95	-0.000169	-0.000229	10.569957	-286.894640	6706.154690	-330.952708
323.46	-0.000151	-0.000234	10.569956	-287.411972	6718.049537	-330.966021
323.97	-0.000166	-0.000251	10.569955	-280.236310	6552.848786	-330.984582
324.48	-0.000156	-0.000253	10.569957	-282.450112	6603.849086	-330.947071
324.99	-0.000160	-0.000264	10.569957	-276.895147	6475.979214	-330.943700
325.50	-0.000153	-0.000256	10.569957	-280.158915	6551.102782	-330.950620
326.01	-0.000164	-0.000259	10.569957	-275.355332	6440.530998	-330.945797
326.52	-0.000155	-0.000261	10.569956	-277.983261	6501.010383	-330.959773
327.03	-0.000167	-0.000289	10.569957	-268.118068	6273.925050	-330.952105
327.54	-0.000149	-0.000283	10.569957	-272.635470	6377.909818	-330.956202
328.05	-0.000166	-0.000293	10.569956	-270.122933	6320.070289	-330.957895
328.56	-0.000153	-0.000275	10.569957	-275.998157	6455.321023	-330.953052
329.07	-0.000167	-0.000252	10.569955	-278.985617	6524.054539	-330.988150
329.58	-0.000150	-0.000216	10.569954	-289.406264	6763.916843	-331.004771
330.09	-0.000164	-0.000211	10.569957	-286.377677	6694.256497	-330.950685
330.60	-0.000148	-0.000204	10.569956	-291.039222	6801.541444	-330.971876
331.11	-0.000155	-0.000227	10.569956	-281.628754	6584.929896	-330.958343
331.62	-0.000144	-0.000240	10.569956	-282.129031	6596.445587	-330.958816
332.13	-0.000158	-0.000259	10.569956	-273.506091	6397.928703	-330.977668
332.64	-0.000149	-0.000245	10.569958	-281.685258	6586.266065	-330.924512
333.15	-0.000164	-0.000221	10.569958	-282.249922	6599.268250	-330.920862
333.66	-0.000161	-0.000168	10.569957	-299.976617	7007.302899	-330.947388
334.17	-0.000163	-0.000123	10.569957	-308.200068	7196.613376	-330.938370
334.69	-0.000160	-0.000077	10.569957	-322.054007	7515.522327	-330.942168
335.20	-0.000169	-0.000066	10.569957	-323.944219	7559.033240	-330.943257
335.71	-0.000154	-0.000053	10.569958	-327.312838	7636.587298	-330.934088
336.22	-0.000165	-0.000072	10.569958	-321.554150	7504.023313	-330.934997
336.73	-0.000152	-0.000065	10.569958	-323.954791	7559.285637	-330.934627
337.24	-0.000159	-0.000075	10.569955	-319.812003	7463.866638	-330.985596
