Length [m]	OTDR [V]	Brillouin intensity [V]	Fitted Frequency [GHz]	Temperature [”]	Compensated Strain [レュ]	Uncompensated Strain [レュ]
0.51	0.007085	0.040266	10.508481	-152.890655	2224.323494	-1683.421262
1.02	0.007122	0.043986	10.480727	-131.268149	1086.480684	-2294.016032
1.53	0.007134	0.047109	10.460977	-93.806131	-231.357221	-2728.496016
2.04	0.007096	0.049625	10.449321	-52.709733	-1446.223203	-2984.944765
2.55	0.006997	0.051719	10.440967	-24.686471	-2283.963574	-3168.718831
3.06	0.006956	0.053436	10.437075	-13.912502	-2621.752531	-3254.356507
3.57	0.006958	0.054907	10.434802	-20.574476	-2520.817144	-3304.361150
4.08	0.006984	0.056114	10.433297	-26.355458	-2422.442266	-3337.462937
4.59	0.007035	0.057127	10.433600	-15.871543	-2656.795025	-3330.801461
5.10	0.007068	0.057895	10.434489	6.439470	-3149.889695	-3311.249059
5.61	0.007068	0.058502	10.434016	28.082108	-3659.000301	-3321.650886
6.12	0.007020	0.058900	10.434070	36.246715	-3845.693237	-3320.455156
6.63	0.006964	0.059221	10.433886	28.133682	-3663.174703	-3324.500389
7.14	0.006929	0.059462	10.433427	11.486899	-3290.561144	-3334.601942
7.65	0.006948	0.059710	10.433452	0.158119	-3029.204098	-3334.055920
8.16	0.006999	0.059890	10.433266	3.796495	-3117.254241	-3338.153873
8.67	0.007068	0.060055	10.432979	20.808809	-3515.495377	-3344.472062
9.18	0.007105	0.060096	10.432822	40.822676	-3979.809899	-3347.908167
9.69	0.007086	0.060072	10.432664	53.492070	-4275.115081	-3351.399516
10.20	0.007019	0.059940	10.432583	54.092858	-4290.800082	-3353.169084
10.71	0.006951	0.059820	10.432135	47.430940	-4147.786014	-3363.033424
11.22	0.006925	0.059721	10.431592	41.696621	-4028.314282	-3374.986160
11.73	0.006946	0.059722	10.431627	44.096449	-4082.733804	-3374.200433
12.24	0.006997	0.059735	10.430882	51.211731	-4263.714783	-3390.597702
12.75	0.007058	0.059794	10.430512	56.506899	-4394.143288	-3398.739794
13.26	0.007062	0.059791	10.430807	55.551926	-4365.357249	-3392.250488
13.77	0.007012	0.059781	10.430981	51.317992	-4263.872824	-3388.415108
14.28	0.006940	0.059748	10.432101	44.753781	-4086.927908	-3363.767134
14.79	0.006899	0.059789	10.432685	38.307612	-3925.081114	-3350.929298
15.30	0.006894	0.059868	10.431978	32.077585	-3797.969605	-3366.479463
15.81	0.006929	0.060006	10.431340	27.506831	-3707.463146	-3380.512120
16.32	0.006949	0.060105	10.432103	24.282607	-3615.649042	-3363.729515
16.83	0.006918	0.060160	10.433522	23.620522	-3567.693789	-3332.523183
17.34	0.006802	0.060076	10.433705	26.247436	-3623.943213	-3328.496538
17.85	0.006644	0.059960	10.432394	31.015600	-3763.922770	-3357.321683
18.36	0.006496	0.059803	10.431161	36.390246	-3916.099882	-3384.464684
18.87	0.006393	0.059702	10.431587	36.609567	-3911.317872	-3375.087117
19.38	0.006345	0.059628	10.432375	34.995629	-3855.987584	-3357.747030
19.89	0.006344	0.059632	10.432503	32.479673	-3795.119017	-3354.930991
20.40	0.006332	0.059607	10.433223	35.264799	-3842.631032	-3339.095561
20.91	0.006288	0.059575	10.433883	42.201139	-3987.073525	-3324.567909
21.42	0.006210	0.059499	10.434180	48.850048	-4133.296599	-3318.050316
21.93	0.006140	0.059441	10.434571	57.241185	-4317.418786	-3309.428030
22.44	0.006094	0.059383	10.435586	52.402059	-4182.625143	-3287.107979
22.95	0.006098	0.059402	10.435444	44.928336	-4013.848383	-3290.223227
23.46	0.006133	0.059400	10.435658	40.104375	-3897.886940	-3285.534293
23.97	0.006179	0.059424	10.436320	31.615991	-3687.201292	-3270.952944
24.48	0.006200	0.059395	10.435884	32.346804	-3714.097791	-3280.562061
24.99	0.006187	0.059374	10.435612	36.255761	-3810.347305	-3286.539841
25.50	0.006145	0.059328	10.435591	39.207986	-3878.793162	-3287.004070
26.02	0.006116	0.059359	10.435882	41.029967	-3914.024851	-3280.603668
26.53	0.006115	0.059400	10.435426	38.694679	-3870.765554	-3290.617968
27.04	0.006138	0.059511	10.435327	32.293377	-3725.704559	-3292.806977
27.55	0.006182	0.059581	10.435403	27.014960	-3602.445002	-3291.135558
28.06	0.006215	0.059644	10.436094	29.118475	-3634.926470	-3275.929608
28.57	0.006215	0.059607	10.435915	31.752528	-3699.687265	-3279.865225
29.08	0.006184	0.059549	10.435509	40.439680	-3909.038098	-3288.808637
29.59	0.006147	0.059454	10.435292	44.824982	-4014.976295	-3293.568658
30.10	0.006122	0.059398	10.435253	44.095548	-3999.087331	-3294.429415
30.61	0.006113	0.059343	10.435630	41.288647	-3925.776650	-3286.133508
31.12	0.006140	0.059339	10.435777	36.916005	-3821.740492	-3282.909861
31.63	0.006168	0.059299	10.436704	33.438949	-3720.306125	-3262.502269
32.14	0.006179	0.059253	10.437427	36.369304	-3771.097933	-3246.606441
32.65	0.006161	0.059149	10.437753	39.157948	-3827.771945	-3239.433431
33.16	0.006132	0.059082	10.437394	43.757262	-3941.929218	-3247.334272
33.67	0.006102	0.059006	10.437956	43.428633	-3921.404525	-3234.971889
34.18	0.006102	0.059022	10.438919	40.318051	-3827.579262	-3213.775426
34.69	0.006126	0.059036	10.438533	33.390358	-3677.025349	-3222.283502
35.20	0.006164	0.059122	10.438446	31.993773	-3646.876553	-3224.191415
35.71	0.006191	0.059136	10.439190	31.417172	-3616.435527	-3207.814899
36.22	0.006193	0.059168	10.439523	33.615892	-3659.382104	-3200.501124
36.73	0.006171	0.059102	10.439358	38.470564	-3774.944219	-3204.134774
37.24	0.006143	0.059091	10.439741	40.643807	-3816.129355	-3195.700161
37.75	0.006129	0.059018	10.440170	40.061308	-3792.833239	-3186.268731
38.26	0.006130	0.059016	10.440563	38.622689	-3750.636538	-3177.607094
38.77	0.006160	0.058983	10.441276	35.713829	-3667.234069	-3161.923465
39.28	0.006186	0.058981	10.441459	33.932582	-3622.007500	-3157.895242
39.79	0.006195	0.058929	10.440458	33.580283	-3636.987732	-3179.920931
40.30	0.006180	0.058913	10.440270	36.042222	-3697.997494	-3184.057810
40.81	0.006151	0.058860	10.441581	38.713929	-3729.257938	-3155.210447
41.32	0.006123	0.058866	10.441626	40.672765	-3773.328657	-3154.236494
41.83	0.006110	0.058862	10.441751	39.614483	-3746.067628	-3151.470409
42.34	0.006121	0.058911	10.441960	37.163999	-3684.854702	-3146.888209
42.85	0.006142	0.058931	10.442283	33.609788	-3595.587468	-3139.781122
43.36	0.006167	0.058966	10.442787	31.900066	-3544.608380	-3128.694965
43.87	0.006167	0.058948	10.442713	32.747297	-3565.809491	-3130.314825
44.38	0.006160	0.058937	10.442107	36.269386	-3660.864310	-3143.648072
44.89	0.006144	0.058902	10.441789	39.683482	-3746.780189	-3150.635018
45.40	0.006129	0.058891	10.442443	41.075490	-3763.758393	-3136.264094
45.91	0.006136	0.058874	10.443561	39.770852	-3707.921609	-3111.649086
46.42	0.006148	0.058895	10.443574	37.142296	-3647.121092	-3111.370499
46.93	0.006161	0.058881	10.443079	33.843993	-3582.616799	-3122.265536
47.44	0.006162	0.058870	10.442711	33.552785	-3584.405693	-3130.366489
47.95	0.006148	0.058800	10.442922	35.739041	-3629.863124	-3125.721498
48.46	0.006132	0.058750	10.443344	39.312015	-3702.365050	-3116.424068
48.97	0.006109	0.058673	10.444830	41.066120	-3708.490380	-3083.749420
49.48	0.006103	0.058637	10.450658	41.119450	-3575.291505	-2955.519283
49.99	0.006109	0.058580	10.468991	38.826706	-3099.712315	-2552.207255
50.50	0.006125	0.058501	10.501614	37.216159	-2310.232730	-1834.483965
51.01	0.006137	0.058283	10.534268	37.491590	-1563.469555	-1116.094709
51.53	0.006137	0.057913	10.556007	41.521370	-1154.877007	-637.847983
52.04	0.006126	0.057324	10.561285	46.581040	-1149.626003	-521.735920
52.55	0.006120	0.056598	10.563940	50.413880	-1176.621296	-463.323191
53.06	0.006112	0.055740	10.566093	50.678052	-1133.040883	-415.950769
53.57	0.006119	0.054876	10.567053	47.501635	-1037.774490	-394.825238
54.08	0.006128	0.054000	10.567719	41.409868	-882.185375	-380.174477
54.59	0.006143	0.053203	10.567919	36.470234	-763.863323	-375.773779
55.10	0.006145	0.052453	10.568205	33.775775	-695.250990	-369.490588
55.61	0.006137	0.051808	10.568494	33.829707	-689.820016	-363.125679
56.12	0.006123	0.051253	10.568167	34.070260	-702.906384	-370.326631
56.63	0.006113	0.050850	10.568498	33.908118	-691.530458	-363.035484
57.14	0.006108	0.050525	10.568700	31.242273	-625.520534	-358.606414
57.65	0.006112	0.050330	10.568595	27.749425	-547.524821	-360.903858
58.16	0.006116	0.050168	10.568309	23.814199	-463.550309	-367.212068
58.67	0.006121	0.050078	10.567927	21.954566	-429.543044	-375.607248
59.18	0.006126	0.049992	10.568718	22.107758	-414.832254	-358.210682
59.69	0.006115	0.049944	10.568933	24.224978	-458.615607	-353.484712
60.20	0.006111	0.049887	10.568867	25.488272	-489.201061	-354.920216
60.71	0.006101	0.049860	10.569164	25.395359	-480.212756	-348.386445
61.22	0.006097	0.049810	10.569323	23.636633	-436.072443	-344.899887
61.73	0.006106	0.049783	10.569249	20.862770	-373.909374	-346.512275
62.24	0.006118	0.049730	10.569397	18.591850	-318.221676	-343.257658
62.75	0.006120	0.049700	10.569388	18.321175	-312.210046	-343.466762
63.26	0.006119	0.049646	10.569319	19.729262	-346.208936	-344.978907
63.77	0.006115	0.049624	10.568861	21.732740	-402.905501	-355.068544
64.28	0.006129	0.049585	10.569266	22.955132	-421.692992	-346.148043
64.79	0.006239	0.049596	10.569927	23.534312	-419.772968	-331.598567
65.30	0.006545	0.049597	10.569551	21.943359	-391.823887	-339.872852
65.81	0.007208	0.049633	10.569705	20.581315	-356.924853	-336.491010
66.32	0.008341	0.049649	10.569811	20.087404	-343.111630	-334.160094
66.83	0.009865	0.049680	10.569717	21.349692	-374.334980	-336.226174
67.34	0.011454	0.049671	10.569590	22.985475	-414.915348	-339.016532
67.85	0.012640	0.049670	10.570085	24.742048	-443.944331	-328.135590
68.36	0.013126	0.049645	10.570037	24.575877	-441.213054	-329.179094
68.87	0.012903	0.049653	10.570382	23.207686	-401.759550	-321.587721
69.38	0.012120	0.049660	10.570859	21.041715	-340.904438	-311.099332
69.89	0.011092	0.049705	10.570487	19.770977	-320.240820	-319.291783
70.40	0.010020	0.049724	10.570379	19.791712	-323.202903	-321.662032
70.91	0.009091	0.049755	10.570059	21.287802	-365.021364	-328.700880
71.42	0.008338	0.049738	10.570424	22.819297	-391.861988	-320.674841
71.93	0.007777	0.049733	10.570690	23.592274	-403.513542	-314.815849
72.44	0.007360	0.049699	10.570569	23.316172	-399.943690	-317.473355
72.95	0.007062	0.049698	10.570944	21.538607	-350.394181	-309.240608
73.46	0.006838	0.049687	10.570366	19.949697	-327.143558	-321.951914
73.97	0.006679	0.049719	10.570306	19.664909	-321.961061	-323.261838
74.48	0.006546	0.049729	10.570194	20.558933	-345.138232	-325.739164
74.99	0.006452	0.049767	10.570381	22.567869	-387.065754	-321.620699
75.50	0.006373	0.049771	10.570502	24.238495	-422.733432	-318.959715
76.01	0.006321	0.049792	10.570937	25.196281	-434.741812	-309.382949
76.52	0.006278	0.049787	10.571386	24.457832	-407.384473	-299.501932
77.03	0.006256	0.049813	10.570785	23.437457	-397.756554	-312.723786
77.55	0.006230	0.049809	10.570285	21.931313	-374.612523	-323.719347
78.06	0.006220	0.049839	10.570217	22.168476	-381.661476	-325.235631
78.57	0.006204	0.049821	10.571134	22.442508	-366.814548	-305.055715
79.08	0.006194	0.049820	10.571282	23.372320	-384.810669	-301.804951
79.59	0.006176	0.049776	10.570909	23.904670	-405.658528	-310.002186
80.10	0.006168	0.049744	10.571457	23.256709	-378.104462	-297.946532
80.61	0.006168	0.049675	10.572224	22.090033	-333.549488	-281.063848
81.12	0.006176	0.049637	10.571718	20.998340	-320.105804	-292.211872
81.63	0.006179	0.049585	10.571606	20.619591	-313.962012	-294.668046
82.14	0.006189	0.049575	10.571602	21.350269	-330.871482	-294.753436
82.65	0.006197	0.049557	10.571844	22.145454	-343.590599	-289.425152
83.16	0.006205	0.049566	10.572009	23.601814	-373.306825	-285.792032
83.67	0.006207	0.049557	10.571966	23.886041	-380.857490	-286.753427
84.18	0.006214	0.049579	10.572403	23.650145	-365.332851	-277.124323
84.69	0.006209	0.049582	10.571283	22.736672	-370.140067	-301.768523
85.20	0.006214	0.049597	10.570781	22.140506	-368.002966	-312.820889
85.71	0.006220	0.049609	10.570970	22.199850	-365.003634	-308.656703
86.22	0.006222	0.049630	10.571214	23.009327	-378.006551	-303.285294
86.73	0.006202	0.049611	10.571411	23.279721	-379.695378	-298.958797
87.24	0.006164	0.049584	10.571321	23.507262	-387.003125	-300.933219
87.75	0.006098	0.049486	10.571390	22.391033	-359.726965	-299.425140
88.26	0.006004	0.049362	10.571221	20.940863	-330.246814	-303.147533
88.77	0.005946	0.049229	10.571564	19.122131	-280.466044	-295.598154
89.28	0.005978	0.049202	10.572140	18.772637	-259.130253	-282.920235
89.79	0.006115	0.049293	10.572213	19.927853	-284.040278	-281.315136
90.30	0.006274	0.049449	10.572015	21.900323	-334.010783	-285.669639
90.81	0.006274	0.049529	10.572013	23.078212	-361.180286	-285.721998
91.32	0.006274	0.049517	10.572240	23.247312	-359.820598	-280.711801
91.83	0.006274	0.049483	10.572416	22.808304	-345.654112	-276.838302
92.34	0.006274	0.049491	10.572439	22.634024	-341.114201	-276.334611
92.85	0.006274	0.049491	10.572532	22.331038	-331.995102	-274.288987
93.36	0.006274	0.049512	10.572351	22.149511	-331.996735	-278.276619
93.87	0.006274	0.049519	10.571894	22.872182	-359.181880	-288.339833
94.38	0.006274	0.049520	10.571325	23.112872	-377.839144	-300.851903
94.89	0.006274	0.049472	10.571614	23.366709	-377.017939	-294.494640
95.40	0.006274	0.049419	10.572540	23.236197	-352.642984	-274.109106
95.91	0.006274	0.049351	10.572396	22.190826	-331.911735	-277.288317
96.42	0.006274	0.049351	10.572292	21.486487	-318.106068	-279.585304
96.93	0.006274	0.049376	10.572066	21.551127	-324.805553	-284.556563
97.44	0.006274	0.049421	10.571843	21.911733	-338.235697	-289.449257
97.95	0.006274	0.049398	10.571702	22.001425	-343.554292	-292.553174
98.46	0.006274	0.049353	10.569959	20.849495	-357.242096	-330.904783
98.97	0.006274	0.049245	10.566265	13.706281	-278.007519	-412.177274
99.48	0.006274	0.049197	10.561544	-3.159323	1.357670	-516.033919
99.99	0.006274	0.049192	10.555348	-34.111460	570.959224	-652.352730
100.50	0.006274	0.049293	10.546845	-75.086404	1318.096986	-839.405358
101.01	0.004806	0.049421	10.537304	-115.366782	2025.285387	-1049.314178
101.52	0.003282	0.049596	10.529568	-145.781091	2546.993679	-1219.508698
102.03	0.002141	0.049736	10.525267	-163.474691	2855.110158	-1314.120938
102.54	0.001316	0.049901	10.523161	-169.433173	2943.706145	-1360.448512
103.06	0.000727	0.050060	10.522336	-165.938949	2844.237202	-1378.604293
103.57	0.000352	0.050279	10.521666	-153.915919	2552.022260	-1393.341083
104.08	0.000113	0.050468	10.521190	-135.945249	2127.367972	-1403.810777
104.59	0.000101	0.050676	10.522284	-113.225146	1629.582654	-1379.749783
105.10	0.000097	0.050793	10.524597	-89.498234	1136.750248	-1328.856074
105.61	0.000069	0.050878	10.527803	-66.453400	680.189933	-1258.339722
106.12	0.000038	0.050854	10.530840	-46.889324	299.879625	-1191.520553
106.63	-0.000012	0.050806	10.532966	-30.611174	-25.814384	-1144.756839
107.14	-0.000066	0.050710	10.535458	-18.198152	-254.082720	-1089.930979
107.65	-0.000066	0.050626	10.536563	-8.198011	-458.796531	-1065.619744
108.16	-0.000111	0.050508	10.537474	-1.108497	-600.987606	-1045.580940
108.67	-0.000171	0.050380	10.537788	4.896838	-731.981850	-1038.668465
109.18	-0.000208	0.050199	10.537460	8.649997	-825.940734	-1045.882310
109.69	-0.000223	0.050027	10.538230	11.772969	-880.062820	-1028.933652
110.20	-0.000223	0.049836	10.538523	13.319230	-908.901504	-1022.489334
110.71	-0.000223	0.049706	10.537967	14.790649	-955.598232	-1034.723329
111.22	-0.000223	0.049609	10.538102	15.323225	-964.747609	-1031.756354
111.73	-0.000223	0.049592	10.537955	16.689896	-999.592833	-1034.985256
112.24	-0.000223	0.049571	10.537582	17.117976	-1018.054571	-1043.195990
112.75	-0.000223	0.049583	10.537726	18.118855	-1037.780217	-1040.034506
113.26	-0.000223	0.049557	10.537947	18.531154	-1042.175106	-1035.173325
113.77	-0.000223	0.049552	10.537554	19.520317	-1073.997624	-1043.808378
114.28	-0.000223	0.049531	10.537701	19.870247	-1078.656489	-1040.568529
114.79	-0.000223	0.049559	10.537887	20.057623	-1078.688531	-1036.484584
115.30	-0.000223	0.049576	10.538151	19.681973	-1063.947740	-1030.671996
115.81	-0.000266	0.049629	10.538042	19.921968	-1071.988315	-1033.071998
116.32	-0.000266	0.049639	10.537731	19.407791	-1067.323052	-1039.912366
116.83	-0.000266	0.049668	10.537564	19.179490	-1065.932315	-1043.598917
117.34	-0.000266	0.049652	10.537634	18.589946	-1050.742248	-1042.054575
117.85	-0.000266	0.049646	10.538299	18.393681	-1030.883923	-1027.421302
118.36	-0.000266	0.049592	10.538637	17.607431	-1004.995585	-1019.991208
118.87	-0.000245	0.049543	10.538438	17.584180	-1009.037847	-1024.357714
119.38	-0.000208	0.049459	10.538203	16.654360	-993.067914	-1029.541416
119.89	-0.000202	0.049396	10.538081	15.849946	-977.363018	-1032.224216
120.40	-0.000180	0.049324	10.538129	15.244113	-962.309653	-1031.167970
120.91	-0.000171	0.049301	10.538373	16.188996	-978.428469	-1025.795517
121.42	-0.000133	0.049282	10.538524	18.282858	-1023.146256	-1022.473820
121.93	-0.000133	0.049321	10.538701	22.412564	-1114.132966	-1018.584082
122.44	-0.000133	0.049356	10.539258	28.388057	-1238.835313	-1006.325005
122.95	-0.000133	0.049427	10.539132	32.510296	-1336.629193	-1009.092616
123.46	-0.000133	0.049460	10.538860	30.749111	-1302.371368	-1015.087005
123.97	-0.000133	0.049508	10.538826	22.768128	-1119.418598	-1015.818387
124.48	-0.000133	0.049498	10.538623	13.559960	-912.136471	-1020.289113
124.99	-0.000133	0.049492	10.538329	13.514924	-917.894226	-1026.770391
125.50	-0.000093	0.049450	10.538211	13.214327	-913.680448	-1029.351525
126.01	-0.000079	0.049447	10.537674	13.192281	-925.568549	-1041.175743
126.52	-0.000038	0.049422	10.538169	13.018150	-910.142627	-1030.284535
127.03	-0.000028	0.049419	10.538260	12.998069	-907.569990	-1028.271438
127.54	-0.000012	0.049316	10.538618	12.259496	-882.317476	-1020.400938
128.05	0.000000	0.049011	10.538864	10.087096	-826.634858	-1014.987812
128.56	0.000000	0.048221	10.539239	4.449911	-688.217235	-1006.735037
129.08	0.000000	0.046701	10.539548	-6.394383	-431.455863	-999.934242
129.59	-0.000252	0.044172	10.539026	-24.442203	-28.041801	-1011.419818
130.10	-0.000191	0.040642	10.541773	-49.623150	614.959475	-950.995187
130.61	-0.000152	0.036249	10.542129	-80.968904	1344.739186	-943.162499
131.12	-0.000156	0.031365	10.540194	-115.819527	2102.355142	-985.738598
131.63	-0.000086	0.026298	10.518413	-151.966124	2432.097631	-1464.923076
132.14	-0.000042	0.021412	10.498795	-186.827022	2782.150312	-1896.501468
132.65	-0.000088	0.016879	10.498971	-219.168619	3530.691360	-1892.639542
133.16	-0.000075	0.012891	10.507916	-247.626185	4392.078150	-1695.845731
133.67	-0.000076	0.009472	10.510060	-272.021133	5003.083256	-1648.683002
134.18	-0.000137	0.006700	10.510058	-291.800231	5458.339812	-1648.732138
134.69	-0.000162	0.004490	10.510051	-307.567463	5821.140502	-1648.880547
135.20	-0.000115	0.002830	10.510052	-313.242780	5951.814229	-1648.852065
135.71	-0.000127	0.001579	10.510051	-318.058256	6062.635100	-1648.880420
136.22	-0.000193	0.000702	10.510050	-324.924459	6220.677849	-1648.894634
136.73	-0.000151	0.000053	10.510053	-337.784221	6516.771260	-1648.831587
137.24	-0.000172	-0.000378	10.510055	-362.873364	7094.347145	-1648.800688
137.75	-0.000223	-0.000703	10.510056	-428.987429	8616.300767	-1648.771630
138.26	-0.000177	-0.000910	10.510059	-700.862163	14874.836390	-1648.702723
138.77	-0.000175	-0.001075	10.510064	-815.520792	17514.356227	-1648.590713
139.28	-0.000195	-0.001176	10.510062	-879.952361	18997.493555	-1648.643506
139.79	-0.000142	-0.001276	10.510058	-1170.301577	25681.139837	-1648.732547
140.30	-0.000154	-0.001334	10.510056	-1904.270838	42576.818204	-1648.773522
140.81	-0.000145	-0.001380	10.510056	4808.408562	-111946.763806	-1648.772076
141.32	-0.000161	-0.001374	10.510056	591.904110	-14884.270564	-1648.769080
141.83	-0.000140	-0.001349	10.510064	573.824807	-14467.907430	-1648.593802
142.34	-0.000156	-0.001267	10.510053	170.535417	-5184.567334	-1648.826264
142.85	-0.000127	-0.001197	10.510049	-26.737897	-643.513785	-1648.931824
143.36	-0.000124	-0.001096	10.510049	-103.343614	1119.939867	-1648.916318
143.87	-0.000115	-0.001028	10.510050	-132.838888	1798.925002	-1648.902957
144.38	-0.000109	-0.000947	10.510049	-149.064868	2172.430465	-1648.913483
144.89	-0.000109	-0.000912	10.510050	-156.210610	2336.936689	-1648.900422
145.40	-0.000103	-0.000868	10.510051	-164.942696	2537.977886	-1648.870312
145.91	-0.000098	-0.000865	10.510056	-165.685275	2555.169935	-1648.776718
146.42	-0.000085	-0.000860	10.510069	-166.603609	2576.623404	-1648.477446
146.93	-0.000084	-0.000881	10.510074	-162.462474	2481.409590	-1648.368988
147.44	-0.000064	-0.000874	10.510070	-163.832063	2512.842792	-1648.458900
147.95	-0.000071	-0.000883	10.510070	-161.981488	2470.242147	-1648.459895
148.46	-0.000072	-0.000862	10.510068	-166.295020	2569.490279	-1648.505597
148.97	-0.000095	-0.000859	10.510071	-166.827318	2581.803901	-1648.448074
149.48	-0.000104	-0.000845	10.510076	-169.732179	2648.809269	-1648.317899
149.99	-0.000117	-0.000873	10.510077	-192.493270	3172.763179	-1648.316585
150.50	-0.000117	-0.000884	10.510068	-190.694314	3131.146108	-1648.512820
151.01	-0.000121	-0.000925	10.510067	-183.701320	2970.166758	-1648.515683
151.52	-0.000122	-0.000952	10.510068	-179.212565	2866.854114	-1648.499508
152.03	-0.000122	-0.001003	10.510068	-170.571431	2667.935280	-1648.502256
152.54	-0.000136	-0.001031	10.510069	-165.977847	2562.205093	-1648.490301
153.05	-0.000127	-0.001068	10.510068	-144.133138	2059.324204	-1648.512395
153.56	-0.000127	-0.001055	10.510069	-112.081883	1321.556131	-1648.473417
154.07	-0.000115	-0.001045	10.510069	-108.450943	1237.958778	-1648.487117
154.59	-0.000103	-0.000978	10.510070	-96.373574	959.965084	-1648.464979
155.10	-0.000083	-0.000934	10.510068	-95.331502	935.928817	-1648.510874
155.61	-0.000071	-0.000867	10.510067	-48.506319	-141.989311	-1648.528475
156.12	-0.000073	-0.000842	10.510066	-56.853377	50.127313	-1648.556890
156.63	-0.000062	-0.000821	10.510069	-63.824533	210.669377	-1648.491603
157.14	-0.000075	-0.000862	10.510070	-50.117941	-104.826103	-1648.467216
157.65	-0.000070	-0.000889	10.510067	-41.176981	-310.713126	-1648.533196
158.16	-0.000079	-0.000948	10.510068	-21.413700	-765.620742	-1648.498523
158.67	-0.000073	-0.000971	10.510067	-13.606918	-945.352784	-1648.520072
159.18	-0.000089	-0.001008	10.510064	-1.094135	-1233.461982	-1648.586105
159.69	-0.000089	-0.001005	10.510065	145.885921	-4616.871877	-1648.566344
160.20	-0.000103	-0.001007	10.510068	230.924682	-6574.371301	-1648.505509
160.71	-0.000113	-0.000993	10.510070	832.761798	-20428.403396	-1648.455486
161.22	-0.000112	-0.000992	10.510077	1243.474907	-29882.730733	-1648.314373
161.73	-0.000117	-0.000978	10.510079	3302.259075	-77275.188741	-1648.267386
162.24	-0.000108	-0.000975	10.510067	-Inf	Inf	-1648.534487
162.75	-0.000105	-0.000942	10.510066	-Inf	Inf	-1648.537810
163.26	-0.000104	-0.000924	10.510070	-Inf	Inf	-1648.450220
163.77	-0.000096	-0.000879	10.510067	-183.241547	2959.562519	-1648.535162
164.28	-0.000093	-0.000867	10.510062	-136.630524	1886.486367	-1648.636614
164.79	-0.000092	-0.000838	10.510060	-92.864960	878.981631	-1648.671354
165.30	-0.000080	-0.000849	10.510061	-96.289586	957.818493	-1648.668371
165.81	-0.000070	-0.000844	10.510061	99.842262	-3557.055322	-1648.654794
166.32	-0.000077	-0.000876	10.510062	594.173476	-14936.370918	-1648.635844
166.83	-0.000069	-0.000893	10.510064	117.160527	-3955.651028	-1648.592941
167.34	-0.000055	-0.000917	10.510066	204.211816	-5959.500521	-1648.553450
167.85	-0.000080	-0.000937	10.510066	208.990001	-6069.479074	-1648.540452
168.36	-0.000077	-0.000948	10.510066	-30.455434	-557.535056	-1648.548060
168.87	-0.000063	-0.000939	10.510065	-80.190352	587.324518	-1648.568310
169.38	-0.000088	-0.000916	10.510066	17.489829	-1661.212191	-1648.541946
169.89	-0.000096	-0.000899	10.510070	-22.920972	-730.882755	-1648.459325
170.40	-0.000087	-0.000888	10.510064	-134.179116	1830.105477	-1648.589213
170.91	-0.000089	-0.000882	10.510063	-77.926947	535.183645	-1648.604625
171.42	-0.000106	-0.000901	10.510065	-104.506827	1147.077964	-1648.571635
171.93	-0.000093	-0.000922	10.510072	-154.509571	2298.280449	-1648.422420
172.44	-0.000087	-0.000956	10.510069	-97.652173	989.381218	-1648.480972
172.95	-0.000109	-0.000956	10.510063	-95.836639	947.448713	-1648.614084
173.46	-0.000094	-0.000956	10.510069	-119.812736	1499.504129	-1648.486396
173.97	-0.000078	-0.000917	10.510062	-49.677905	-115.126561	-1648.630297
174.48	-0.000095	-0.000902	10.510060	-77.373718	522.364802	-1648.684458
174.99	-0.000074	-0.000859	10.510059	-74.465332	455.394320	-1648.703961
175.50	-0.000075	-0.000849	10.510058	-103.121847	1115.032422	-1648.727864
176.01	-0.000088	-0.000829	10.510057	-74.520661	456.629359	-1648.740793
176.52	-0.000084	-0.000849	10.510057	-95.559983	940.950594	-1648.737709
177.03	-0.000081	-0.000851	10.510057	-40.549072	-325.391457	-1648.746942
177.54	-0.000078	-0.000888	10.510058	-18.931510	-822.985768	-1648.713973
178.05	-0.000082	-0.000892	10.510059	7.980316	-1442.475174	-1648.702899
178.56	-0.000071	-0.000926	10.510057	40.589351	-2193.169429	-1648.746213
179.07	-0.000072	-0.000921	10.510056	38.988286	-2156.335804	-1648.767534
179.58	-0.000074	-0.000938	10.510057	67.340307	-2808.959298	-1648.738602
180.09	-0.000072	-0.000914	10.510059	76.857248	-3027.995002	-1648.699463
180.61	-0.000076	-0.000919	10.510059	146.840638	-4638.997759	-1648.708102
181.12	-0.000079	-0.000886	10.510063	133.614542	-4334.438849	-1648.613946
181.63	-0.000078	-0.000891	10.510060	286.336342	-7850.111924	-1648.680223
182.14	-0.000075	-0.000873	10.510056	211.099839	-6118.275637	-1648.758725
182.65	-0.000077	-0.000896	10.510056	217.240038	-6259.634709	-1648.771881
183.16	-0.000080	-0.000896	10.510056	82.604243	-3160.358585	-1648.765977
183.67	-0.000080	-0.000915	10.510057	54.028678	-2502.540351	-1648.748335
184.18	-0.000086	-0.000901	10.510057	5.991944	-1396.743574	-1648.741078
184.69	-0.000088	-0.000906	10.510058	5.759762	-1391.390009	-1648.732672
185.20	-0.000079	-0.000880	10.510057	-13.774218	-941.736516	-1648.744158
185.71	-0.000085	-0.000876	10.510058	-18.660474	-829.246086	-1648.734171
186.22	-0.000075	-0.000834	10.510058	-33.522200	-487.120002	-1648.720590
186.73	-0.000076	-0.000817	10.510056	-70.206471	357.294831	-1648.763062
187.24	-0.000076	-0.000772	10.510057	-67.034552	284.290146	-1648.751814
187.75	-0.000074	-0.000753	10.510058	-74.096082	446.878198	-1648.719334
188.26	-0.000073	-0.000709	10.510057	-63.117766	194.129210	-1648.749762
188.77	-0.000066	-0.000722	10.510055	-26.941322	-638.677478	-1648.785357
189.28	-0.000070	-0.000727	10.510057	52.627716	-2470.287770	-1648.745555
189.79	-0.000071	-0.000770	10.510058	148.829815	-4684.798437	-1648.718128
190.30	-0.000072	-0.000788	10.510058	142.895067	-4548.196231	-1648.731152
190.81	-0.000070	-0.000821	10.510058	250.687244	-7029.526143	-1648.722457
191.32	-0.000071	-0.000794	10.510058	132.522563	-4309.417950	-1648.724683
191.83	-0.000074	-0.000772	10.510058	152.491755	-4769.089683	-1648.713017
192.34	-0.000072	-0.000711	10.510059	61.306202	-2670.020516	-1648.704496
192.85	-0.000075	-0.000669	10.510060	72.352255	-2924.279821	-1648.688228
193.36	-0.000072	-0.000619	10.510056	-29.191628	-586.847330	-1648.757823
193.87	-0.000068	-0.000612	10.510056	-32.416062	-512.639701	-1648.774741
194.38	-0.000067	-0.000597	10.510057	-80.924378	604.042825	-1648.738790
194.89	-0.000073	-0.000630	10.510057	-89.201148	794.567832	-1648.742044
195.40	-0.000058	-0.000640	10.510058	-85.071377	699.518480	-1648.726241
195.91	-0.000066	-0.000679	10.510058	-79.008247	559.947191	-1648.726356
196.42	-0.000061	-0.000685	10.510056	-56.185022	34.523087	-1648.765728
196.93	-0.000059	-0.000716	10.510058	-35.726144	-436.399825	-1648.733808
197.44	-0.000068	-0.000715	10.510057	-30.655956	-553.125436	-1648.744883
197.95	-0.000065	-0.000740	10.510059	5.184546	-1378.124491	-1648.709550
198.46	-0.000068	-0.000734	10.510059	14.164256	-1584.825979	-1648.701565
198.97	-0.000069	-0.000747	10.510055	21.926369	-1763.592264	-1648.782743
199.48	-0.000074	-0.000724	10.510055	65.232963	-2760.496754	-1648.784186
199.99	-0.000079	-0.000735	10.510057	128.736756	-4222.285176	-1648.739186
200.50	-0.000071	-0.000710	10.510057	74.614821	-2976.413705	-1648.736299
201.01	-0.000075	-0.000725	10.510060	129.413996	-4237.804757	-1648.672183
201.52	-0.000072	-0.000719	10.510061	244.844581	-6894.952625	-1648.648603
202.03	-0.000068	-0.000738	10.510057	75.963616	-3007.464380	-1648.738075
202.54	-0.000067	-0.000727	10.510056	84.968503	-3214.774512	-1648.757850
203.05	-0.000067	-0.000729	10.510057	176.623199	-5324.621393	-1648.745569
203.56	-0.000071	-0.000689	10.510057	11.367714	-1520.497988	-1648.746833
204.07	-0.000071	-0.000674	10.510057	-24.613864	-692.215996	-1648.748387
204.58	-0.000074	-0.000621	10.510058	-21.314531	-768.149343	-1648.732971
205.09	-0.000071	-0.000608	10.510059	-33.623461	-484.775621	-1648.707817
205.60	-0.000059	-0.000588	10.510057	-91.386897	844.887097	-1648.738174
206.12	-0.000062	-0.000612	10.510056	-44.698991	-229.893958	-1648.777684
206.63	-0.000062	-0.000620	10.510056	-21.805211	-756.901795	-1648.778489
207.14	-0.000061	-0.000664	10.510057	-66.479065	271.517088	-1648.738386
207.65	-0.000059	-0.000671	10.510061	-19.790738	-803.138680	-1648.649154
208.16	-0.000068	-0.000701	10.510057	65.371626	-2763.638150	-1648.735937
208.67	-0.000063	-0.000686	10.510055	-15.679335	-897.932542	-1648.792965
209.18	-0.000062	-0.000694	10.510054	78.209559	-3059.248191	-1648.817238
209.69	-0.000066	-0.000668	10.510053	59.828093	-2636.120398	-1648.824172
210.20	-0.000064	-0.000676	10.510054	4.210350	-1355.811195	-1648.816743
210.71	-0.000056	-0.000647	10.510054	7.358970	-1428.285932	-1648.811558
211.22	-0.000064	-0.000649	10.510054	17.241426	-1655.772081	-1648.807178
211.73	-0.000061	-0.000607	10.510055	6.692716	-1412.932935	-1648.796258
212.24	-0.000061	-0.000577	10.510054	-23.139007	-726.222456	-1648.801581
212.75	-0.000067	-0.000520	10.510055	-12.483122	-971.506801	-1648.791579
213.26	-0.000067	-0.000503	10.510054	-29.154474	-587.748071	-1648.801202
213.77	-0.000064	-0.000464	10.510055	-58.688141	92.124389	-1648.784458
214.28	-0.000066	-0.000485	10.510058	-39.494008	-349.647695	-1648.717402
214.79	-0.000073	-0.000479	10.510057	-58.613813	90.449413	-1648.750099
215.30	-0.000074	-0.000502	10.510054	-56.807562	48.811183	-1648.806324
215.81	-0.000069	-0.000500	10.510053	-52.866472	-41.935324	-1648.829179
216.32	-0.000071	-0.000511	10.510055	-36.165973	-426.338227	-1648.794015
216.83	-0.000067	-0.000494	10.510055	-51.381065	-76.076972	-1648.779671
217.34	-0.000063	-0.000510	10.510055	-53.027280	-38.203462	-1648.800452
217.85	-0.000063	-0.000509	10.510054	-53.252064	-33.038966	-1648.809952
218.36	-0.000061	-0.000558	10.510054	-47.419109	-167.319894	-1648.817862
218.87	-0.000061	-0.000597	10.510053	-36.131928	-427.157007	-1648.827475
219.38	-0.000059	-0.000673	10.510057	40.487152	-2190.827672	-1648.756538
219.89	-0.000058	-0.000701	10.510064	29.781247	-1944.207668	-1648.590823
220.40	-0.000063	-0.000749	10.510076	107.969564	-3743.790205	-1648.318232
220.91	-0.000054	-0.000731	10.510069	89.138405	-3310.466935	-1648.474258
221.42	-0.000060	-0.000728	10.510062	90.501065	-3341.993545	-1648.625573
221.93	-0.000050	-0.000671	10.510063	66.549267	-2790.615697	-1648.610661
222.44	-0.000050	-0.000640	10.510066	50.395048	-2418.696657	-1648.558722
222.95	-0.000054	-0.000595	10.510061	64.489347	-2743.253157	-1648.664184
223.46	-0.000058	-0.000585	10.510062	34.528622	-2053.529949	-1648.628347
223.97	-0.000056	-0.000549	10.510066	7.342880	-1427.647868	-1648.556230
224.48	-0.000055	-0.000552	10.510066	3.508392	-1339.376895	-1648.553956
224.99	-0.000055	-0.000518	10.510066	-7.882691	-1077.144450	-1648.540979
225.50	-0.000058	-0.000521	10.510068	-11.807643	-986.744046	-1648.493904
226.01	-0.000052	-0.000492	10.510067	-41.312950	-307.567289	-1648.518045
226.52	-0.000053	-0.000494	10.510068	-34.197232	-471.364554	-1648.514121
227.03	-0.000057	-0.000468	10.510062	-61.477112	156.490416	-1648.627181
227.54	-0.000053	-0.000488	10.510062	-34.909484	-455.104143	-1648.643265
228.05	-0.000052	-0.000475	10.510067	-26.237571	-654.604743	-1648.525096
228.56	-0.000053	-0.000505	10.510073	-4.086437	-1164.389392	-1648.404067
229.07	-0.000048	-0.000514	10.510064	-24.169129	-702.283930	-1648.586496
229.58	-0.000043	-0.000557	10.510061	88.976449	-3306.930605	-1648.657260
230.09	-0.000049	-0.000580	10.510062	55.217227	-2529.788996	-1648.642120
230.60	-0.000052	-0.000631	10.510064	121.241557	-4049.592768	-1648.590875
231.11	-0.000056	-0.000657	10.510065	155.721253	-4843.275134	-1648.563736
231.62	-0.000056	-0.000700	10.510065	119.982425	-4020.592140	-1648.575765
232.14	-0.000052	-0.000686	10.510063	135.717169	-4382.848459	-1648.621441
232.65	-0.000055	-0.000682	10.510060	110.829194	-3809.993865	-1648.676858
233.16	-0.000050	-0.000638	10.510062	72.757283	-2933.551152	-1648.638372
233.67	-0.000055	-0.000620	10.510061	36.534840	-2099.744733	-1648.659174
234.18	-0.000049	-0.000580	10.510059	-10.683121	-1012.840582	-1648.694633
234.69	-0.000051	-0.000591	10.510061	33.550524	-2031.055354	-1648.667350
235.20	-0.000047	-0.000590	10.510061	13.911327	-1578.952416	-1648.652716
235.71	-0.000046	-0.000648	10.510062	65.144690	-2758.313800	-1648.640209
236.22	-0.000042	-0.000679	10.510058	104.745871	-3670.001947	-1648.718913
236.73	-0.000045	-0.000737	10.510057	149.359584	-4697.032576	-1648.755372
237.24	-0.000040	-0.000760	10.510057	165.127320	-5059.994334	-1648.749526
237.75	-0.000050	-0.000791	10.510058	156.766588	-4867.516091	-1648.733252
238.26	-0.000052	-0.000774	10.510059	151.620494	-4749.029744	-1648.709386
238.77	-0.000051	-0.000781	10.510061	135.327867	-4373.928526	-1648.661186
239.28	-0.000055	-0.000760	10.510061	136.076165	-4391.148577	-1648.655941
239.79	-0.000056	-0.000767	10.510058	247.165409	-6948.463250	-1648.730610
240.30	-0.000052	-0.000746	10.510059	201.417252	-5895.328182	-1648.703763
240.81	-0.000051	-0.000739	10.510060	192.798084	-5696.884379	-1648.671806
241.32	-0.000053	-0.000682	10.510059	157.605268	-4886.779841	-1648.692827
241.83	-0.000050	-0.000630	10.510060	138.140191	-4438.689966	-1648.682844
242.34	-0.000044	-0.000535	10.510060	11.322740	-1519.381386	-1648.669271
242.85	-0.000052	-0.000472	10.510060	-2.969707	-1190.386125	-1648.680693
243.36	-0.000049	-0.000403	10.510058	-48.819526	-134.989695	-1648.729078
243.87	-0.000044	-0.000385	10.510058	-80.025892	583.364832	-1648.734166
244.38	-0.000046	-0.000360	10.510063	-87.953412	765.989925	-1648.604162
244.89	-0.000054	-0.000384	10.513211	-31.698429	-456.397667	-1579.366985
245.40	-0.000045	-0.000398	10.514881	-61.223116	261.786813	-1542.607034
245.91	-0.000042	-0.000453	10.514904	-6.933867	-987.407136	-1542.105287
246.42	-0.000046	-0.000481	10.514910	12.776509	-1440.998950	-1541.977166
246.93	-0.000044	-0.000534	10.514915	18.743534	-1578.247459	-1541.871909
247.44	-0.000043	-0.000554	10.514920	32.552981	-1896.029464	-1541.770070
247.95	-0.000050	-0.000587	10.514919	73.580214	-2840.471071	-1541.778423
248.46	-0.000043	-0.000570	10.514919	46.119437	-2208.338650	-1541.783437
248.97	-0.000046	-0.000587	10.514924	18.426593	-1570.735505	-1541.665781
249.48	-0.000054	-0.000583	10.514927	13.153237	-1449.289081	-1541.612757
249.99	-0.000051	-0.000609	10.514927	57.613737	-2472.736820	-1541.595820
250.50	-0.000048	-0.000616	10.514930	48.237140	-2256.825673	-1541.533739
251.01	-0.000042	-0.000644	10.514927	91.171553	-3245.237047	-1541.606115
251.52	-0.000039	-0.000640	10.514923	112.980451	-3747.355209	-1541.686990
252.03	-0.000036	-0.000635	10.514932	109.877088	-3675.724847	-1541.503842
252.54	-0.000033	-0.000594	10.514930	93.214362	-3292.200506	-1541.547630
253.05	-0.000037	-0.000565	10.514928	76.993908	-2918.854995	-1541.589399
253.56	-0.000040	-0.000511	10.514929	45.213219	-2187.234824	-1541.551654
254.07	-0.000041	-0.000498	10.514927	45.736663	-2199.348717	-1541.613075
254.58	-0.000046	-0.000471	10.514924	-2.279678	-1094.091939	-1541.673142
255.09	-0.000049	-0.000493	10.514933	65.743053	-2659.745495	-1541.476199
255.60	-0.000048	-0.000484	10.514940	24.069779	-1700.269265	-1541.312394
256.11	-0.000049	-0.000505	10.514938	115.989045	-3816.269689	-1541.360437
256.62	-0.000051	-0.000520	10.514940	124.430193	-4010.544313	-1541.324464
257.13	-0.000051	-0.000567	10.514941	133.048345	-4208.905429	-1541.299865
257.65	-0.000045	-0.000576	10.514937	108.038251	-3633.271766	-1541.385853
258.16	-0.000041	-0.000623	10.514938	158.033356	-4784.108602	-1541.354013
258.67	-0.000037	-0.000640	10.514932	179.740139	-5283.941936	-1541.497687
259.18	-0.000035	-0.000680	10.514931	210.717222	-5997.035951	-1541.509277
259.69	-0.000033	-0.000687	10.514927	188.798198	-5492.578293	-1541.614947
260.20	-0.000036	-0.000712	10.514905	277.646508	-7538.327821	-1542.084115
260.71	-0.000039	-0.000696	10.514900	248.463621	-6866.664287	-1542.195269
261.22	-0.000043	-0.000698	10.514899	209.930011	-5979.659661	-1542.219977
261.73	-0.000045	-0.000670	10.514900	228.159983	-6399.291138	-1542.204481
262.24	-0.000041	-0.000666	10.514910	234.368764	-6541.985873	-1541.985781
262.75	-0.000040	-0.000642	10.514914	200.934876	-5772.261313	-1541.901925
263.26	-0.000041	-0.000649	10.514910	261.869662	-7175.043761	-1541.982557
263.77	-0.000040	-0.000617	10.514912	297.402577	-7992.953933	-1541.939273
264.28	-0.000039	-0.000611	10.514925	221.547688	-6246.487042	-1541.640428
264.79	-0.000033	-0.000566	10.514929	146.981221	-4529.908380	-1541.560205
265.30	-0.000040	-0.000535	10.514926	88.937734	-3193.834938	-1541.624850
265.81	-0.000037	-0.000487	10.514921	47.976895	-2251.052510	-1541.741287
266.32	-0.000036	-0.000466	10.514920	61.142036	-2554.125615	-1541.756619
266.83	-0.000034	-0.000425	10.514922	8.947302	-1352.585569	-1541.723100
267.34	-0.000034	-0.000425	10.514927	43.676790	-2151.923157	-1541.605455
267.85	-0.000031	-0.000406	10.514929	-8.705884	-946.050439	-1541.565871
268.36	-0.000029	-0.000425	10.514930	48.742138	-2268.462581	-1541.545215
268.87	-0.000033	-0.000411	10.514927	23.784057	-1694.009694	-1541.615411
269.38	-0.000032	-0.000423	10.514921	58.696316	-2497.809255	-1541.740665
269.89	-0.000033	-0.000408	10.514920	54.123715	-2392.563696	-1541.754157
270.40	-0.000038	-0.000420	10.514937	109.298098	-3662.283294	-1541.395662
270.91	-0.000038	-0.000417	10.514938	72.347499	-2811.657784	-1541.361930
271.42	-0.000047	-0.000451	10.514935	165.171718	-4948.501955	-1541.421457
271.93	-0.000038	-0.000451	10.514933	67.908149	-2709.583452	-1541.474468
272.44	-0.000041	-0.000482	10.511603	78.622888	-3033.024240	-1614.725955
272.95	-0.000037	-0.000472	10.510167	77.529293	-3040.987856	-1646.336264
273.46	-0.000035	-0.000492	10.510106	63.949701	-2729.782311	-1647.664115
273.97	-0.000034	-0.000470	10.510098	35.046640	-2064.637448	-1647.848918
274.48	-0.000038	-0.000490	10.510087	80.739761	-3116.723759	-1648.083854
274.99	-0.000035	-0.000468	10.510081	71.920506	-2913.842278	-1648.212395
275.50	-0.000042	-0.000465	10.510078	50.105192	-2411.736468	-1648.284170
276.01	-0.000044	-0.000428	10.510079	41.973541	-2224.514898	-1648.251980
276.52	-0.000045	-0.000398	10.510080	63.647663	-2723.441712	-1648.248118
277.03	-0.000043	-0.000346	10.510081	-39.259205	-354.529583	-1648.218329
277.54	-0.000042	-0.000322	10.510079	-47.700719	-160.264756	-1648.271682
278.05	-0.000036	-0.000284	10.510073	-51.413404	-74.924830	-1648.390734
278.56	-0.000039	-0.000305	10.510073	-40.090792	-335.571507	-1648.394584
279.07	-0.000036	-0.000325	10.510075	-67.869064	303.932302	-1648.339735
279.58	-0.000040	-0.000389	10.510076	43.768113	-2265.894644	-1648.318117
280.09	-0.000034	-0.000422	10.510081	107.105524	-3723.791441	-1648.214374
280.60	-0.000036	-0.000479	10.510089	122.865588	-4086.397185	-1648.037392
281.11	-0.000031	-0.000506	10.510087	176.173815	-5313.596642	-1648.096831
281.62	-0.000034	-0.000545	10.510080	221.111532	-6348.201423	-1648.243636
282.13	-0.000028	-0.000557	10.510079	160.218950	-4946.499381	-1648.266886
282.64	-0.000034	-0.000585	10.510076	263.351663	-7320.638166	-1648.323184
283.15	-0.000034	-0.000564	10.510075	204.354675	-5962.581618	-1648.355555
283.67	-0.000031	-0.000566	10.510073	129.490123	-4239.257590	-1648.386412
284.18	-0.000036	-0.000530	10.510074	128.928584	-4226.305207	-1648.361657
284.69	-0.000039	-0.000531	10.510074	153.628888	-4794.920027	-1648.382907
285.20	-0.000036	-0.000515	10.510075	204.084745	-5956.364144	-1648.351949
285.71	-0.000043	-0.000530	10.510074	267.907989	-7425.566830	-1648.364773
286.22	-0.000044	-0.000510	10.510071	300.617353	-8178.603656	-1648.439612
286.73	-0.000041	-0.000524	10.510072	373.586763	-9858.304029	-1648.410535
287.24	-0.000045	-0.000505	10.510075	277.759011	-7652.324222	-1648.355461
287.75	-0.000041	-0.000522	10.510073	251.029616	-7037.052144	-1648.383552
288.26	-0.000043	-0.000533	10.510075	240.273742	-6789.430394	-1648.359493
288.77	-0.000038	-0.000577	10.510073	217.731487	-6270.551054	-1648.393512
289.28	-0.000040	-0.000594	10.510069	201.248780	-5891.222411	-1648.486649
289.79	-0.000038	-0.000631	10.510070	246.009604	-6921.578969	-1648.465367
290.30	-0.000036	-0.000627	10.510072	227.589413	-6497.508769	-1648.423684
290.81	-0.000041	-0.000625	10.510072	213.576720	-6174.933306	-1648.415991
291.32	-0.000040	-0.000592	10.510071	183.281522	-5477.568265	-1648.435126
291.83	-0.000043	-0.000580	10.510070	238.870772	-6757.239760	-1648.459894
292.34	-0.000043	-0.000554	10.510068	272.065262	-7521.407187	-1648.499614
292.85	-0.000047	-0.000575	10.510071	354.622616	-9421.774295	-1648.428119
293.36	-0.000048	-0.000569	10.510075	392.821649	-10301.020747	-1648.349680
293.87	-0.000045	-0.000607	10.510067	473.297623	-12153.739434	-1648.530261
294.38	-0.000037	-0.000600	10.510064	414.243331	-10794.398795	-1648.596035
294.89	-0.000038	-0.000599	10.510065	343.028144	-9155.021491	-1648.569275
295.40	-0.000032	-0.000563	10.510070	250.047923	-7014.530111	-1648.456236
295.91	-0.000035	-0.000546	10.510069	204.638191	-5969.235699	-1648.477298
296.42	-0.000032	-0.000504	10.510069	211.211246	-6120.550830	-1648.482708
296.93	-0.000033	-0.000503	10.510072	223.633258	-6406.432716	-1648.417277
297.44	-0.000035	-0.000481	10.510065	187.699676	-5579.421100	-1648.576726
297.95	-0.000030	-0.000494	10.510065	215.475192	-6218.802042	-1648.574875
298.46	-0.000027	-0.000487	10.510065	213.230840	-6167.122263	-1648.560029
298.97	-0.000029	-0.000497	10.510064	324.531134	-8729.243443	-1648.585291
299.48	-0.000022	-0.000481	10.510065	193.771534	-5719.180428	-1648.564542
299.99	-0.000031	-0.000496	10.510068	261.143682	-7269.998728	-1648.502056
300.50	-0.000030	-0.000481	10.510066	255.077571	-7130.396697	-1648.538093
301.01	-0.000031	-0.000498	10.510065	318.386010	-8587.761833	-1648.563396
301.52	-0.000040	-0.000494	10.510071	305.855903	-8299.186547	-1648.433173
302.03	-0.000037	-0.000512	10.510097	387.680195	-10182.156188	-1647.863149
302.54	-0.000038	-0.000500	10.510084	438.482828	-11351.915868	-1648.149747
303.05	-0.000042	-0.000518	10.510073	361.182257	-9572.727716	-1648.383032
303.56	-0.000036	-0.000514	10.510070	387.920255	-10188.314021	-1648.465759
304.07	-0.000038	-0.000545	10.510075	405.930988	-10602.785078	-1648.341898
304.58	-0.000032	-0.000575	10.510070	334.502724	-8958.645271	-1648.451017
305.09	-0.000028	-0.000637	10.510065	408.058551	-10651.990626	-1648.561092
305.60	-0.000030	-0.000659	10.510062	292.441444	-7990.594264	-1648.627752
306.11	-0.000031	-0.000707	10.510062	502.551821	-12827.274914	-1648.638868
306.62	-0.000034	-0.000713	10.510062	433.815869	-11245.002015	-1648.643820
307.13	-0.000035	-0.000737	10.510061	560.608939	-14163.741227	-1648.649658
307.64	-0.000034	-0.000718	10.510065	587.130632	-14774.184503	-1648.576171
308.15	-0.000034	-0.000717	10.510070	603.181877	-15143.555940	-1648.459100
308.66	-0.000033	-0.000685	10.510063	476.789660	-12234.211323	-1648.612668
309.18	-0.000036	-0.000680	10.510061	530.078822	-13460.963828	-1648.664403
309.69	-0.000032	-0.000641	10.510060	335.449564	-8980.685672	-1648.684211
310.20	-0.000036	-0.000648	10.510062	321.678506	-8663.629544	-1648.635499
310.71	-0.000036	-0.000636	10.510062	295.309747	-8056.626387	-1648.632297
311.22	-0.000039	-0.000651	10.510061	337.014485	-9016.691291	-1648.666736
311.73	-0.000038	-0.000631	10.510063	327.815880	-8804.894733	-1648.621122
312.24	-0.000040	-0.000611	10.510061	412.784746	-10760.896088	-1648.666087
312.75	-0.000037	-0.000545	10.510062	292.364687	-7988.831148	-1648.631375
313.26	-0.000033	-0.000491	10.510066	267.597315	-7418.596479	-1648.537673
313.77	-0.000038	-0.000411	10.510060	116.243342	-3934.620010	-1648.671428
314.28	-0.000035	-0.000384	10.510058	167.331570	-5110.697410	-1648.713277
314.79	-0.000033	-0.000354	10.510062	104.960483	-3674.856890	-1648.637486
315.30	-0.000032	-0.000375	10.510061	208.718109	-6063.343491	-1648.658042
315.81	-0.000033	-0.000375	10.510063	159.230091	-4924.093184	-1648.607433
316.32	-0.000033	-0.000413	10.510066	327.908685	-8806.958039	-1648.551456
316.83	-0.000030	-0.000440	10.510061	232.120823	-6602.075198	-1648.666866
317.34	-0.000036	-0.000488	10.510059	300.844255	-8184.091542	-1648.692092
317.85	-0.000034	-0.000505	10.510062	381.865155	-10049.099314	-1648.629490
318.36	-0.000029	-0.000555	10.510061	351.488699	-9349.874057	-1648.658458
318.87	-0.000032	-0.000544	10.510059	278.575470	-7671.484239	-1648.704008
319.38	-0.000025	-0.000560	10.510061	366.371111	-9692.468673	-1648.664718
319.89	-0.000028	-0.000535	10.510063	222.926571	-6390.366502	-1648.609478
320.40	-0.000029	-0.000547	10.510063	220.156849	-6326.624326	-1648.624625
320.91	-0.000034	-0.000531	10.510058	245.374251	-6907.218923	-1648.718704
321.42	-0.000040	-0.000541	10.510059	203.916922	-5952.878885	-1648.712492
321.93	-0.000037	-0.000506	10.510061	211.284692	-6122.418155	-1648.651186
322.44	-0.000039	-0.000495	10.510062	176.091658	-5312.263890	-1648.629571
322.95	-0.000032	-0.000463	10.510063	205.412208	-5987.206197	-1648.623147
323.46	-0.000032	-0.000456	10.510061	169.511283	-5160.820561	-1648.662614
323.97	-0.000031	-0.000433	10.510059	169.571613	-5162.243039	-1648.694769
324.48	-0.000025	-0.000446	10.510058	215.871566	-6228.077277	-1648.718769
324.99	-0.000031	-0.000439	10.510059	134.867769	-4363.376843	-1648.698987
325.50	-0.000030	-0.000464	10.510059	179.796253	-5397.619652	-1648.703244
326.01	-0.000030	-0.000461	10.510060	145.451194	-4606.994769	-1648.690492
326.52	-0.000029	-0.000484	10.510061	162.573111	-5001.099118	-1648.655841
327.03	-0.000029	-0.000474	10.510067	115.363585	-3914.218126	-1648.528155
327.54	-0.000022	-0.000497	10.510063	122.415520	-4076.637530	-1648.610468
328.05	-0.000029	-0.000495	10.510061	154.862280	-4823.603581	-1648.660772
328.56	-0.000029	-0.000520	10.510061	287.824448	-7884.337453	-1648.651456
329.07	-0.000028	-0.000499	10.510059	255.672508	-7144.255543	-1648.694153
329.58	-0.000031	-0.000503	10.510056	373.792583	-9863.417371	-1648.768664
330.09	-0.000030	-0.000460	10.510055	253.628437	-7097.309319	-1648.796784
330.60	-0.000028	-0.000439	10.510055	266.776303	-7399.955635	-1648.784331
331.11	-0.000025	-0.000396	10.510056	194.632368	-5739.216684	-1648.774552
331.62	-0.000033	-0.000376	10.510057	144.673343	-4589.151687	-1648.750389
332.13	-0.000031	-0.000337	10.510060	168.343533	-5133.967772	-1648.689722
332.64	-0.000027	-0.000330	10.510062	213.805410	-6180.422032	-1648.630018
333.15	-0.000026	-0.000301	10.510061	132.506109	-4308.976949	-1648.665332
333.66	-0.000026	-0.000319	10.510057	295.488973	-8060.864749	-1648.739754
334.17	-0.000022	-0.000318	10.510057	112.727594	-3853.764109	-1648.743352
334.69	-0.000021	-0.000352	10.510061	186.425894	-5550.176285	-1648.650366
335.20	-0.000025	-0.000339	10.510060	152.423730	-4767.482785	-1648.673912
335.71	-0.000028	-0.000331	10.510055	32.206271	-2000.245864	-1648.795888
336.22	-0.000027	-0.000273	10.510055	-5.541594	-1131.301135	-1648.794175
336.73	-0.000028	-0.000236	10.510055	-58.422773	86.020892	-1648.779517
337.24	-0.000031	-0.000176	10.510054	-149.955482	2193.042257	-1648.808404
