Length [m]	OTDR [V]	Brillouin intensity [V]	Fitted Frequency [GHz]	Temperature [”]	Compensated Strain [レュ]	Uncompensated Strain [レュ]
0.51	0.006832	0.036266	10.500072	-152.049252	1978.781705	-1868.426821
1.02	0.006907	0.039350	10.473403	-129.247529	838.846632	-2455.123493
1.53	0.006870	0.042011	10.453985	-91.157519	-485.824234	-2882.331667
2.04	0.006917	0.044248	10.440883	-51.608716	-1698.403256	-3170.581844
2.55	0.006954	0.046152	10.434141	-27.274164	-2414.057675	-3318.896294
3.06	0.006990	0.047706	10.431210	-19.344999	-2664.175863	-3383.372198
3.57	0.006961	0.049000	10.430253	-24.369333	-2570.585948	-3404.423486
4.08	0.006897	0.050004	10.428834	-27.074721	-2541.039639	-3435.645554
4.59	0.006875	0.050843	10.428825	-14.414832	-2832.682095	-3435.851743
5.10	0.006852	0.051511	10.428749	9.175431	-3377.479907	-3437.528731
5.61	0.006902	0.052100	10.428872	28.675963	-3823.535022	-3434.819203
6.12	0.006926	0.052533	10.429351	33.089094	-3914.076822	-3424.281452
6.63	0.006971	0.052876	10.428993	24.076445	-3714.851861	-3432.144614
7.14	0.006955	0.053063	10.427971	8.066852	-3369.907406	-3454.648099
7.65	0.006934	0.053196	10.427828	-2.588681	-3127.908094	-3457.783976
8.16	0.006902	0.053238	10.428215	2.923128	-3245.863841	-3449.271132
8.67	0.006889	0.053299	10.428639	21.117492	-3654.919931	-3439.949622
9.18	0.006926	0.053346	10.429086	41.011136	-4102.541662	-3430.102314
9.69	0.006975	0.053430	10.429036	52.807183	-4375.243808	-3431.209969
10.20	0.006983	0.053440	10.428982	51.250694	-4340.663912	-3432.402290
10.71	0.006982	0.053435	10.427338	42.570617	-4178.753955	-3468.557631
11.22	0.006940	0.053358	10.426935	36.425635	-4046.599661	-3477.429996
11.73	0.006895	0.053280	10.427904	41.017195	-4129.936653	-3456.101492
12.24	0.006861	0.053196	10.426734	52.276655	-4416.120241	-3481.851826
12.75	0.006892	0.053171	10.426598	60.103752	-4599.424668	-3484.835023
13.26	0.006913	0.053130	10.426294	59.091583	-4583.145340	-3491.531867
13.77	0.006943	0.053117	10.426166	49.842360	-4373.186285	-3494.350559
14.28	0.006941	0.053068	10.427638	37.089321	-4045.659353	-3461.959430
14.79	0.006921	0.053066	10.428384	29.092258	-3844.376535	-3445.558775
15.30	0.006878	0.053039	10.428072	25.444364	-3767.599170	-3452.423003
15.81	0.006840	0.053075	10.428294	25.592665	-3765.890683	-3447.536788
16.32	0.006806	0.053114	10.427984	27.368507	-3813.914832	-3454.352314
16.83	0.006765	0.053206	10.427456	26.287396	-3801.198972	-3465.962245
17.34	0.006705	0.053253	10.428007	23.233286	-3718.193374	-3453.846671
17.85	0.006615	0.053308	10.427629	23.612923	-3735.653088	-3462.165285
18.36	0.006510	0.053303	10.426676	26.439483	-3822.703442	-3483.135860
18.87	0.006400	0.053299	10.426330	29.371024	-3898.160709	-3490.742469
19.38	0.006301	0.053251	10.428063	34.300479	-3971.672282	-3452.621770
19.89	0.006238	0.053221	10.429473	36.247032	-3983.944702	-3421.584965
20.40	0.006185	0.053166	10.430424	42.359188	-4102.730348	-3400.681003
20.91	0.006167	0.053134	10.430827	41.259234	-4068.107199	-3391.807217
21.42	0.006142	0.053052	10.432115	44.060938	-4102.885217	-3363.460751
21.93	0.006133	0.052973	10.431687	49.824065	-4245.429181	-3372.884122
22.44	0.006103	0.052833	10.431525	42.853124	-4088.695739	-3376.447200
22.95	0.006089	0.052741	10.431186	43.743269	-4117.003222	-3383.903539
23.46	0.006057	0.052649	10.431332	38.848535	-4000.966640	-3380.697002
23.97	0.006075	0.052650	10.431249	33.221246	-3873.350093	-3382.530134
24.48	0.006068	0.052653	10.431726	31.288789	-3817.851613	-3372.023839
24.99	0.006099	0.052697	10.431752	33.722686	-3873.281754	-3371.454052
25.50	0.006117	0.052711	10.431098	30.143500	-3805.985168	-3385.853301
26.02	0.006112	0.052745	10.431011	30.927580	-3826.034311	-3387.760989
26.53	0.006123	0.052732	10.430723	28.541821	-3777.754430	-3394.094433
27.04	0.006096	0.052744	10.431121	26.847750	-3729.570678	-3385.331078
27.55	0.006086	0.052729	10.431851	31.906701	-3829.189343	-3369.270494
28.06	0.006101	0.052776	10.431825	30.867985	-3805.880929	-3369.845201
28.57	0.006102	0.052802	10.431197	35.098452	-3917.747354	-3383.660156
29.08	0.006122	0.052877	10.432151	37.350067	-3947.592576	-3362.687424
29.59	0.006119	0.052919	10.432437	36.912880	-3930.928720	-3356.391697
30.10	0.006115	0.052966	10.431803	37.523423	-3959.601549	-3370.336195
30.61	0.006087	0.052955	10.431593	41.265308	-4050.573381	-3374.948256
31.12	0.006074	0.052954	10.432000	34.275817	-3880.286965	-3365.990397
31.63	0.006048	0.052910	10.432498	44.513227	-4104.470034	-3355.040886
32.14	0.006067	0.052873	10.432648	36.189749	-3909.413814	-3351.747427
32.65	0.006069	0.052841	10.433213	41.647145	-4022.006888	-3339.313933
33.16	0.006080	0.052821	10.434959	34.840165	-3825.043206	-3300.900817
33.67	0.006089	0.052833	10.435606	40.645638	-3943.773428	-3286.678287
34.18	0.006090	0.052819	10.435053	33.079376	-3782.343483	-3298.833737
34.69	0.006080	0.052825	10.435138	42.852053	-4005.345820	-3296.962803
35.20	0.006101	0.052783	10.436269	38.395594	-3876.685668	-3272.090681
35.71	0.006085	0.052765	10.436784	40.288915	-3908.382228	-3260.751575
36.22	0.006111	0.052722	10.436672	37.404951	-3844.568106	-3263.206688
36.73	0.006116	0.052715	10.436585	35.327253	-3798.765789	-3265.138893
37.24	0.006111	0.052693	10.437131	33.262052	-3738.621781	-3253.116084
37.75	0.006120	0.052684	10.436670	34.740067	-3783.284997	-3263.265452
38.26	0.006112	0.052656	10.437034	37.999663	-3849.916005	-3255.249037
38.77	0.006099	0.052640	10.437801	39.108166	-3857.746545	-3238.377494
39.28	0.006099	0.052622	10.437545	40.248003	-3889.889519	-3244.009664
39.79	0.006092	0.052597	10.437104	37.327945	-3832.837028	-3253.707286
40.30	0.006087	0.052572	10.437321	35.812225	-3792.944307	-3248.936457
40.81	0.006088	0.052534	10.437880	33.122982	-3718.145366	-3236.637290
41.32	0.006087	0.052503	10.437376	33.772880	-3744.734056	-3247.729556
41.83	0.006075	0.052437	10.437238	34.446477	-3763.415755	-3250.758888
42.34	0.006079	0.052389	10.438763	35.798099	-3759.367772	-3217.217815
42.85	0.006075	0.052312	10.439373	35.953565	-3748.867018	-3203.787295
43.36	0.006080	0.052268	10.438218	33.634152	-3722.121558	-3229.205652
43.87	0.006081	0.052203	10.437918	30.569983	-3658.503356	-3235.804678
44.38	0.006087	0.052179	10.439061	29.956078	-3618.000355	-3210.649134
44.89	0.006090	0.052142	10.439349	29.762425	-3606.912232	-3204.324470
45.40	0.006090	0.052145	10.439282	32.010946	-3660.214252	-3205.795229
45.91	0.006086	0.052158	10.439322	34.544098	-3717.608458	-3204.919476
46.42	0.006096	0.052234	10.438651	36.973360	-3788.993237	-3219.670662
46.93	0.006082	0.052303	10.439125	35.757056	-3750.060856	-3209.241158
47.44	0.006087	0.052404	10.439783	35.345104	-3725.402027	-3194.764837
47.95	0.006078	0.052464	10.440401	34.141228	-3683.451018	-3181.182961
48.46	0.006083	0.052541	10.439881	34.802047	-3710.660720	-3192.627798
48.97	0.006078	0.052546	10.440316	35.925774	-3726.487596	-3183.049692
49.48	0.006080	0.052547	10.445264	38.265843	-3666.229288	-3074.184423
49.99	0.006073	0.052453	10.465237	39.686795	-3238.307345	-2634.785435
50.50	0.006073	0.052297	10.499610	40.462977	-2463.432747	-1878.584767
51.01	0.006061	0.051981	10.532738	40.436758	-1698.783857	-1149.758039
51.53	0.006067	0.051550	10.556266	40.677359	-1161.700439	-632.148181
52.04	0.006060	0.050950	10.560516	41.370569	-1079.636773	-538.645323
52.55	0.006077	0.050287	10.562898	42.495192	-1050.594088	-486.246263
53.06	0.006070	0.049524	10.564773	43.150128	-1022.427033	-444.996105
53.57	0.006086	0.048788	10.565638	43.409531	-1008.448602	-425.965885
54.08	0.006068	0.048036	10.566242	41.304486	-946.067037	-412.683567
54.59	0.006079	0.047369	10.566656	39.237000	-888.922003	-403.571661
55.10	0.006062	0.046744	10.566791	35.314396	-795.518614	-400.608463
55.61	0.006074	0.046245	10.567850	32.813632	-713.517205	-377.300100
56.12	0.006058	0.045811	10.568543	29.832885	-628.907134	-362.043052
56.63	0.006081	0.045496	10.567673	29.050092	-630.964810	-381.194913
57.14	0.006061	0.045211	10.567847	27.590989	-593.354615	-377.358169
57.65	0.006074	0.045011	10.568163	27.913987	-593.513558	-370.417215
58.16	0.006058	0.044817	10.567385	25.222118	-549.484485	-387.527232
58.67	0.006065	0.044686	10.567589	24.563714	-529.632084	-383.047552
59.18	0.006061	0.044568	10.567657	21.743845	-463.156749	-381.556658
59.69	0.006065	0.044485	10.568104	20.059247	-414.055918	-371.710508
60.20	0.006059	0.044400	10.568582	19.620305	-392.938774	-361.205280
60.71	0.006069	0.044350	10.568186	18.577053	-378.050425	-369.911524
61.22	0.006062	0.044284	10.568220	19.623047	-401.337519	-369.156677
61.73	0.006063	0.044277	10.569008	20.162526	-395.592489	-351.830270
62.24	0.006055	0.044263	10.569302	19.146728	-365.412134	-345.346551
62.75	0.006056	0.044304	10.568556	19.461546	-389.884643	-361.778062
63.26	0.006052	0.044329	10.569217	18.447257	-351.286889	-347.231786
63.77	0.006056	0.044389	10.569187	19.160067	-368.374144	-347.879124
64.28	0.006077	0.044414	10.568667	19.571264	-389.847854	-359.333715
64.79	0.006190	0.044454	10.569675	21.580043	-412.824076	-337.140928
65.30	0.006462	0.044448	10.569830	22.279543	-425.350936	-333.730355
65.81	0.007065	0.044459	10.568865	23.965716	-486.439309	-354.976907
66.32	0.008080	0.044421	10.568711	22.475635	-455.684141	-358.359442
66.83	0.009461	0.044403	10.568374	22.192710	-456.949208	-365.778840
67.34	0.010889	0.044362	10.568141	21.222783	-439.997075	-370.906321
67.85	0.011950	0.044358	10.568888	20.653971	-409.674703	-354.471945
68.36	0.012377	0.044332	10.569214	20.370392	-395.627445	-347.299188
68.87	0.012168	0.044357	10.569412	21.213448	-410.459984	-342.935721
69.38	0.011456	0.044348	10.570109	19.869956	-363.457977	-327.601424
69.89	0.010515	0.044357	10.570394	20.859224	-379.668107	-321.341442
70.40	0.009554	0.044333	10.570207	19.159153	-344.834854	-325.444943
70.91	0.008709	0.044328	10.570269	18.791476	-334.932185	-324.072409
71.42	0.008040	0.044294	10.569777	18.801979	-346.542522	-334.916927
71.93	0.007546	0.044299	10.569414	18.318684	-343.777395	-342.891734
72.44	0.007173	0.044289	10.569611	18.755097	-349.280366	-338.558042
72.95	0.006923	0.044310	10.569867	19.681013	-364.693500	-332.928919
73.46	0.006716	0.044306	10.570152	19.617623	-356.669343	-326.666592
73.97	0.006588	0.044334	10.569961	20.308549	-376.977023	-330.866427
74.48	0.006481	0.044323	10.569517	20.482152	-391.210660	-340.631912
74.99	0.006414	0.044341	10.569402	20.599499	-396.561981	-343.159772
75.50	0.006354	0.044317	10.569871	20.441845	-382.106521	-332.832502
76.01	0.006328	0.044315	10.570573	21.135009	-381.879546	-317.395095
76.52	0.006288	0.044286	10.570810	20.643601	-365.093894	-312.173787
77.03	0.006277	0.044282	10.571078	20.856904	-363.837062	-306.291072
77.55	0.006254	0.044242	10.571101	20.215434	-348.539709	-305.784615
78.06	0.006250	0.044238	10.570617	20.132480	-357.778321	-316.418916
78.57	0.006231	0.044193	10.570131	19.413290	-352.435909	-327.115142
79.08	0.006226	0.044187	10.570461	19.206594	-340.063925	-319.852190
79.59	0.006216	0.044139	10.570723	18.811849	-324.934912	-314.088601
80.10	0.006215	0.044135	10.570192	18.994882	-341.403986	-325.779378
80.61	0.006212	0.044115	10.570227	18.253480	-323.515118	-324.995230
81.12	0.006221	0.044143	10.570195	19.307674	-348.529706	-325.708168
81.63	0.006208	0.044140	10.570121	18.990405	-342.944352	-327.347051
82.14	0.006221	0.044157	10.570393	19.658271	-352.036431	-321.354646
82.65	0.006219	0.044131	10.570448	19.172001	-339.577730	-320.148035
83.16	0.006233	0.044134	10.570906	19.456016	-335.551764	-310.071067
83.67	0.006235	0.044109	10.570903	19.131932	-328.152229	-310.129032
84.18	0.006244	0.044121	10.570800	19.684010	-343.248349	-312.406475
84.69	0.006243	0.044118	10.570516	19.674380	-349.575489	-318.653415
85.20	0.006253	0.044158	10.570237	20.663057	-378.771040	-324.793271
85.71	0.006251	0.044181	10.569995	20.533151	-381.359941	-330.115391
86.22	0.006252	0.044225	10.570291	21.261969	-391.296642	-323.590261
86.73	0.006217	0.044208	10.570639	20.167132	-358.084508	-315.950081
87.24	0.006185	0.044186	10.571192	20.389553	-350.441468	-303.775295
87.75	0.006117	0.044094	10.570975	18.659992	-315.640008	-308.556695
88.26	0.006041	0.044022	10.570625	19.177652	-335.631707	-316.259810
88.77	0.005976	0.043949	10.570818	17.915990	-302.118253	-311.995445
89.28	0.006010	0.044003	10.570765	19.362713	-336.657694	-313.174827
89.79	0.006079	0.044147	10.570709	19.849767	-349.150580	-314.396851
90.30	0.006106	0.044333	10.570597	22.316094	-408.510862	-316.863902
90.81	0.006110	0.044396	10.570971	21.453396	-380.035898	-308.645118
91.32	0.006138	0.044367	10.571184	22.389728	-396.673953	-303.955717
91.83	0.006160	0.044289	10.570929	21.000172	-370.552947	-309.551434
92.34	0.006167	0.044260	10.571110	21.680363	-382.045525	-305.578238
92.85	0.006168	0.044219	10.570325	20.958089	-383.534462	-322.858635
93.36	0.006171	0.044244	10.569953	21.365676	-401.482835	-331.029657
93.87	0.006177	0.044253	10.570568	21.232829	-384.254433	-317.512523
94.38	0.006185	0.044310	10.570289	22.026336	-408.939799	-323.635740
94.89	0.006186	0.044304	10.570087	21.381784	-398.757709	-328.076431
95.40	0.006189	0.044305	10.570200	21.843973	-406.808671	-325.607274
95.91	0.006219	0.044270	10.570315	21.500998	-396.244671	-323.061473
96.42	0.006219	0.044304	10.570302	22.245159	-413.683122	-323.355385
96.93	0.006219	0.044325	10.570754	22.377626	-406.304477	-313.408068
97.44	0.006219	0.044361	10.570948	22.883947	-413.487661	-309.142073
97.95	0.006219	0.044299	10.570582	22.111626	-404.148857	-317.192792
98.46	0.006219	0.044213	10.569047	20.187770	-395.270149	-350.968472
98.97	0.006219	0.044065	10.565072	12.398342	-307.628022	-438.410895
99.48	0.006219	0.043985	10.559368	-3.069845	-83.120568	-563.911351
99.99	0.006219	0.043955	10.553287	-32.137962	445.788583	-697.676448
100.50	0.006219	0.044047	10.544460	-70.375113	1122.409823	-891.877119
101.01	0.006217	0.044146	10.533791	-109.349120	1773.510523	-1126.602265
101.52	0.006197	0.044299	10.524711	-139.032848	2247.401608	-1326.367345
102.03	0.006197	0.044413	10.518706	-156.498529	2510.968844	-1458.470553
102.54	0.006197	0.044563	10.515433	-162.255743	2568.019892	-1530.469450
103.06	0.006197	0.044708	10.513848	-158.599517	2447.284372	-1565.354186
103.57	0.006197	0.044925	10.514423	-146.315662	2177.797543	-1552.683184
104.08	0.006197	0.045118	10.515470	-127.991852	1780.131209	-1529.654485
104.59	0.006197	0.045313	10.517644	-105.534024	1313.297688	-1481.827579
105.10	0.006197	0.045437	10.522229	-81.994368	877.156122	-1380.968094
105.61	0.006197	0.045526	10.526932	-59.897230	476.961200	-1277.494526
106.12	0.006197	0.045534	10.530752	-41.442549	140.240501	-1193.455746
106.63	0.006207	0.045548	10.533696	-25.759943	-152.862602	-1128.680696
107.14	0.006208	0.045529	10.535397	-14.507876	-372.657313	-1091.264712
107.65	0.006208	0.045535	10.537314	-4.393484	-561.267387	-1049.083242
108.16	0.006208	0.045499	10.539017	1.839084	-665.481648	-1011.635488
108.67	0.006207	0.045458	10.539811	7.219259	-770.999580	-994.148639
109.18	0.006207	0.045370	10.540292	10.169680	-827.842927	-983.584760
109.69	0.006207	0.045305	10.540443	12.957561	-888.532570	-980.259041
110.20	0.006207	0.045217	10.540076	13.741009	-915.031204	-988.332842
110.71	0.006207	0.045191	10.540076	15.764072	-961.589179	-988.321144
111.22	0.006207	0.045172	10.540273	16.239465	-967.986131	-983.984281
111.73	0.006206	0.045192	10.540205	17.742816	-1004.162699	-985.481874
112.24	0.006199	0.045176	10.540011	17.853427	-1011.199272	-989.765236
112.75	0.006198	0.045192	10.539521	19.049658	-1050.035229	-1000.543530
113.26	0.006198	0.045162	10.539447	19.076017	-1052.352143	-1002.174832
113.77	0.006199	0.045167	10.540319	19.697212	-1046.540809	-982.990816
114.28	0.006206	0.045156	10.541074	19.665401	-1028.390007	-966.375204
114.79	0.006206	0.045197	10.540320	20.221570	-1058.582004	-982.962818
115.30	0.006206	0.045211	10.540279	19.781733	-1049.398955	-983.861268
115.81	0.006206	0.045238	10.540500	20.770117	-1067.055939	-979.000855
116.32	0.006201	0.045214	10.539968	19.785919	-1056.674620	-990.709634
116.83	0.006201	0.045198	10.539750	19.781950	-1061.611283	-995.505894
117.34	0.006201	0.045146	10.540105	18.597309	-1026.147303	-987.689659
117.85	0.006202	0.045135	10.540559	18.350346	-1010.003456	-977.712904
118.36	0.006202	0.045096	10.540397	17.536724	-994.988904	-981.256423
118.87	0.006202	0.045100	10.539969	17.624102	-1006.876394	-990.677267
119.38	0.006201	0.045085	10.539715	16.920165	-996.536492	-996.271433
119.89	0.006201	0.045112	10.539183	17.280572	-1017.091339	-1007.964771
120.40	0.006201	0.045113	10.539437	17.246623	-1010.470416	-1002.394525
120.91	0.006201	0.045147	10.539712	19.532675	-1056.732337	-996.325563
121.42	0.006201	0.045137	10.539332	21.295695	-1106.080043	-1004.685197
121.93	0.006201	0.045140	10.539655	25.366847	-1192.357578	-997.589112
122.44	0.006201	0.045100	10.540263	29.609164	-1275.989142	-984.210479
122.95	0.006200	0.045101	10.539913	33.660613	-1377.324546	-991.910807
123.46	0.006199	0.045083	10.539716	31.382648	-1329.436472	-996.250984
123.97	0.006199	0.045122	10.539276	27.471692	-1249.550674	-1005.926511
124.48	0.006198	0.045148	10.539447	26.081815	-1213.607627	-1002.159973
124.99	0.006198	0.045202	10.539842	26.272938	-1208.892398	-993.465305
125.50	0.006194	0.045210	10.539655	24.650792	-1175.884062	-997.598491
126.01	0.006191	0.045216	10.540398	23.383515	-1129.560123	-981.237424
126.52	0.006191	0.045180	10.541259	22.693672	-1093.834141	-962.306201
127.03	0.006188	0.045155	10.541170	22.415955	-1089.489490	-964.260086
127.54	0.006184	0.045107	10.541335	21.846193	-1072.559373	-960.621507
128.05	0.006184	0.045102	10.541701	21.507893	-1056.334278	-952.572908
128.56	0.006180	0.045060	10.541827	20.687719	-1034.547303	-949.800039
129.08	0.006174	0.045047	10.541525	20.508191	-1037.376171	-956.440699
129.59	0.006184	0.044993	10.541490	19.899359	-1024.178856	-957.220781
130.10	0.006185	0.044959	10.541033	17.866713	-987.926875	-967.273840
130.61	0.006170	0.044893	10.541052	17.344601	-975.479081	-966.864651
131.12	0.006177	0.044872	10.541006	17.176244	-972.653177	-967.865874
131.63	0.006172	0.044819	10.540760	16.749487	-968.509546	-973.284228
132.14	0.006177	0.044800	10.541251	16.601436	-953.773016	-962.477956
132.65	0.006169	0.044755	10.542444	16.242124	-917.980378	-936.225158
133.16	0.006180	0.044752	10.542427	16.215557	-917.777121	-936.614646
133.67	0.006173	0.044723	10.542984	15.982058	-899.547437	-924.352565
134.18	0.006186	0.044737	10.543212	16.093893	-896.854532	-919.328056
134.69	0.006181	0.044731	10.542901	16.048599	-902.992015	-926.177211
135.20	0.006195	0.044758	10.543253	16.388863	-902.705385	-918.432086
135.71	0.006193	0.044759	10.543669	17.553561	-919.924369	-909.282260
136.22	0.006194	0.044788	10.543344	17.792436	-932.917391	-916.431009
136.73	0.006191	0.044797	10.543085	17.862808	-940.522723	-922.140517
137.24	0.006193	0.044847	10.542990	18.258498	-951.807952	-924.216760
137.75	0.006191	0.044871	10.542324	18.457819	-971.761853	-938.874092
138.26	0.006217	0.044936	10.542695	18.973969	-975.090708	-930.715592
138.77	0.006442	0.044970	10.543244	19.247481	-968.724157	-918.636576
139.28	0.008434	0.045049	10.543328	19.877424	-981.286172	-916.786885
139.79	0.018016	0.045070	10.542953	20.051868	-993.951800	-925.038158
140.30	0.048616	0.045111	10.542090	20.377464	-1021.341781	-944.015981
140.81	0.121819	0.045113	10.542501	19.834773	-999.374947	-934.978424
141.32	0.262512	0.045120	10.543293	19.818186	-980.720808	-917.548368
141.83	0.477057	0.045104	10.543879	19.686708	-964.190838	-904.667419
142.34	0.730246	0.045113	10.544659	19.774638	-948.230142	-887.511613
142.85	0.952451	0.045092	10.544762	19.670284	-943.437132	-885.230990
143.36	1.079549	0.045104	10.544903	19.766455	-942.409785	-882.139240
143.87	1.087776	0.045073	10.544838	19.520852	-938.241521	-883.556200
144.38	0.995206	0.045072	10.544386	19.514473	-948.518822	-893.499841
144.89	0.841461	0.045026	10.544497	19.144171	-937.447501	-891.070149
145.40	0.667970	0.045000	10.543848	18.933190	-947.565529	-905.354634
145.91	0.506157	0.044929	10.543531	18.428383	-943.238109	-912.311519
146.42	0.372471	0.044905	10.543777	18.632228	-942.268778	-906.910730
146.93	0.269735	0.044846	10.544085	18.211588	-925.477733	-900.130304
147.44	0.193677	0.044837	10.543876	18.140700	-928.669026	-904.731111
147.95	0.138219	0.044811	10.542036	17.874083	-964.961932	-945.205612
148.46	0.097935	0.044806	10.541603	17.442502	-965.010805	-954.729151
148.97	0.068533	0.044783	10.541120	17.256662	-971.881619	-965.364019
149.48	0.047270	0.044792	10.541017	17.328950	-975.917138	-967.626197
149.99	0.032021	0.044774	10.542126	17.187446	-947.092227	-943.237186
150.50	0.021168	0.044805	10.542504	17.705728	-950.297350	-934.913825
151.01	0.013513	0.044803	10.542453	17.688664	-951.074437	-936.029799
151.52	0.007935	0.044823	10.541572	17.848207	-975.066249	-955.412371
152.03	0.003614	0.044802	10.541439	17.648047	-973.521288	-958.333860
152.54	0.000143	0.044806	10.541340	17.675502	-976.438215	-960.513465
153.05	-0.002765	0.044782	10.540663	17.483319	-987.624359	-975.404048
153.56	-0.005118	0.044798	10.540076	17.649105	-1004.979567	-988.318833
154.07	-0.006975	0.044796	10.538797	17.630667	-1034.069155	-1016.472424
154.59	-0.008223	0.044821	10.538541	17.828814	-1044.523436	-1022.093776
155.10	-0.008865	0.044811	10.539816	17.754822	-1013.414313	-994.043402
155.61	-0.008820	0.044830	10.539778	17.900517	-1017.651795	-994.886301
156.12	-0.008170	0.044808	10.538729	17.725150	-1037.797576	-1017.954266
156.63	-0.006937	0.044807	10.537998	17.717028	-1054.470899	-1034.037375
157.14	-0.005302	0.044778	10.538177	17.517696	-1045.767769	-1030.112459
157.65	-0.003349	0.044778	10.538948	17.613791	-1030.186495	-1013.139294
158.16	-0.001334	0.044764	10.539717	17.517561	-1010.238387	-996.223774
158.67	0.000629	0.044795	10.539232	17.780244	-1027.480007	-1006.902500
159.18	0.002281	0.044798	10.538914	17.827697	-1035.894097	-1013.886748
159.69	0.003516	0.044842	10.539026	18.382056	-1046.077207	-1011.427524
160.20	0.004172	0.044855	10.539205	18.680699	-1048.820963	-1007.487052
160.71	0.004245	0.044886	10.539000	18.954768	-1059.852166	-1011.991595
161.22	0.003688	0.044874	10.538120	19.006746	-1081.342384	-1031.349876
161.73	0.002603	0.044873	10.538082	19.222650	-1087.197766	-1032.194397
162.24	0.001080	0.044825	10.538513	18.842446	-1068.508146	-1022.715016
162.75	-0.000666	0.044787	10.538340	18.754878	-1070.482163	-1026.520915
163.26	-0.002517	0.044717	10.538907	18.565499	-1053.051330	-1014.052046
163.77	-0.004201	0.044682	10.539127	17.709191	-1028.251592	-1009.198745
164.28	-0.005639	0.044628	10.538871	17.182765	-1022.054311	-1014.846683
164.79	-0.006626	0.044619	10.539590	17.999115	-1024.252712	-999.017877
165.30	-0.007128	0.044596	10.540266	17.399543	-994.859583	-984.145361
165.81	-0.007063	0.044609	10.539869	17.779902	-1012.775679	-992.883478
166.32	-0.006502	0.044604	10.539502	17.487565	-1014.507491	-1000.954768
166.83	-0.005463	0.044652	10.539152	18.338752	-1042.171398	-1008.652665
167.34	-0.004144	0.044671	10.539663	17.851114	-1019.164680	-997.414259
167.85	-0.002600	0.044730	10.539401	18.702233	-1044.792062	-1003.170988
168.36	-0.001081	0.044751	10.539349	18.144780	-1033.158107	-1004.314187
168.87	0.000347	0.044795	10.539902	18.775170	-1034.932143	-992.163975
169.38	0.001481	0.044801	10.539496	18.013070	-1026.734414	-1001.078752
169.89	0.002291	0.044829	10.538979	18.381200	-1047.150770	-1012.470401
170.40	0.002657	0.044828	10.539348	18.288268	-1036.496731	-1004.348122
170.91	0.002627	0.044859	10.539609	18.701531	-1039.990463	-998.606146
171.42	0.002181	0.044855	10.539209	18.561511	-1045.998435	-1007.411808
171.93	0.001449	0.044886	10.539243	18.952956	-1054.207642	-1006.647044
172.44	0.000476	0.044881	10.540109	17.409347	-998.710271	-987.603267
172.95	-0.000552	0.044903	10.539270	5.061041	-733.808412	-1006.063172
173.46	-0.001613	0.044888	10.539162	-76.774305	1147.520790	-1008.440735
173.97	-0.002518	0.044901	10.539764	-217.275300	4395.693620	-995.192928
174.48	-0.003201	0.044876	10.539604	-295.175584	6185.239795	-998.714470
174.99	-0.003674	0.044865	10.539220	-322.716334	6810.368240	-1007.156724
175.50	-0.003825	0.044779	10.539831	-332.531683	7050.411696	-993.709056
176.01	-0.003608	0.044580	10.541594	-336.360885	7179.214418	-954.927292
176.52	-0.003375	0.044032	10.541696	-338.006569	7219.446783	-952.686298
177.03	-0.002717	0.042959	10.542308	-338.760877	7250.929152	-939.218631
177.54	-0.002091	0.041075	10.545186	-339.111141	7325.353624	-875.916035
178.05	-0.001398	0.038329	10.545367	-339.250726	7332.752692	-871.923114
178.56	-0.000792	0.034737	10.543518	-339.267219	7290.479286	-912.610095
179.07	-0.000136	0.030563	10.560522	-339.196855	7681.025201	-538.521259
179.58	0.000073	0.026065	10.567079	-339.062806	7829.169339	-394.262299
180.09	0.000436	0.021607	10.543974	-338.880746	7292.095963	-902.581539
180.61	0.000463	0.017350	10.544865	-338.687593	7308.214179	-882.964932
181.12	0.000291	0.013545	10.544901	-338.507090	7304.873686	-882.187866
181.63	0.000129	0.010219	10.544902	-338.380516	7302.001632	-882.148138
182.14	-0.000219	0.007480	10.544915	-338.313243	7300.751917	-881.863035
182.65	-0.000520	0.005273	10.544924	-338.327018	7301.263987	-881.677054
183.16	-0.000874	0.003596	10.544921	-338.395305	7302.772428	-881.737613
183.67	-0.001099	0.002302	10.544926	-338.582302	7307.198552	-881.621706
184.18	-0.001356	0.001370	10.544926	-338.876113	7313.958278	-881.625229
184.69	-0.001443	0.000647	10.544927	-339.482960	7327.950771	-881.603214
185.20	-0.001472	0.000136	10.544930	-340.500034	7351.428129	-881.541530
185.71	-0.001463	-0.000260	10.544929	-342.624348	7400.299743	-881.569542
186.22	-0.001369	-0.000531	10.544928	-348.288035	7530.651073	-881.593223
186.73	-0.001269	-0.000729	10.544904	-593.494328	13174.665176	-882.118712
187.24	-0.001030	-0.000826	10.529284	-326.172500	6660.776593	-1225.745413
187.75	-0.001160	-0.000892	10.539610	-332.342113	7040.941658	-998.579896
188.26	-0.000738	-0.000893	10.526762	-334.643670	6797.618862	-1281.225637
188.77	-0.000990	-0.000913	10.534049	-335.487761	6985.099444	-1120.921985
189.28	-0.000734	-0.000905	10.534752	-335.929549	7011.479179	-1105.459262
189.79	-0.000787	-0.000917	10.529776	-335.840085	6894.663896	-1214.925440
190.30	-0.000752	-0.000883	10.535158	-335.633802	7014.036199	-1096.525923
190.81	-0.000940	-0.000860	10.536089	-334.843774	7017.323967	-1076.041815
191.32	-0.000730	-0.000798	10.534050	-333.523955	6939.906264	-1120.909631
191.83	-0.000857	-0.000757	10.528689	-329.782011	6730.127411	-1238.850995
192.34	-0.000731	-0.000692	10.519032	-315.228906	6172.408734	-1451.296336
192.85	-0.000696	-0.000660	10.529488	-393.066116	8205.344385	-1221.262405
193.36	-0.000664	-0.000607	10.527275	-354.205972	7259.754799	-1269.951976
193.87	-0.000521	-0.000598	10.531579	-349.443696	7249.397747	-1175.258863
194.38	-0.000559	-0.000584	10.542535	-347.950008	7467.678430	-934.240553
194.89	-0.000361	-0.000612	10.531974	-348.152673	7228.780211	-1166.577016
195.40	-0.000501	-0.000619	10.534838	-349.336822	7322.088826	-1103.571661
195.91	-0.000397	-0.000665	10.527789	-353.686776	7259.663070	-1258.638675
196.42	-0.000529	-0.000675	10.528000	-372.039440	7687.008103	-1253.990308
196.93	-0.000603	-0.000708	10.526702	-288.227767	5727.739758	-1282.561969
197.44	-0.000636	-0.000710	10.524978	-326.996680	6580.443270	-1320.473589
197.95	-0.000873	-0.000737	10.528051	-332.288964	6773.122551	-1252.886831
198.46	-0.000806	-0.000756	10.532259	-334.345789	6917.527751	-1160.302911
198.97	-0.001029	-0.000808	10.535428	-334.944044	7004.376248	-1090.594511
199.48	-0.000962	-0.000833	10.532833	-335.195327	6950.313961	-1147.682598
199.99	-0.001067	-0.000874	10.532836	-334.855074	6942.570275	-1147.597889
200.50	-0.000979	-0.000852	10.532130	-334.497325	6918.053054	-1163.129314
201.01	-0.001054	-0.000836	10.530157	-333.406815	6847.442395	-1206.539158
201.52	-0.000859	-0.000776	10.529670	-331.704592	6797.017887	-1217.260958
202.03	-0.000848	-0.000743	10.530327	-326.802758	6699.323071	-1202.815289
202.54	-0.000664	-0.000689	10.529211	-309.346468	6271.756570	-1227.358015
203.05	-0.000557	-0.000676	10.528346	-437.669617	9205.755748	-1246.393961
203.56	-0.000465	-0.000638	10.528892	-362.376022	7485.133038	-1234.365127
204.07	-0.000310	-0.000627	10.530013	-354.593641	7331.832180	-1209.709656
204.58	-0.000323	-0.000575	10.529998	-351.747800	7265.970770	-1210.044593
205.09	-0.000187	-0.000559	10.530003	-351.553909	7261.631318	-1209.926444
205.60	-0.000303	-0.000531	10.530000	-353.076937	7296.606418	-1210.007044
206.12	-0.000277	-0.000551	10.529992	-359.877405	7452.976284	-1210.173571
206.63	-0.000393	-0.000556	10.529998	-399.021712	8354.195007	-1210.049401
207.14	-0.000492	-0.000610	10.528562	-286.159284	5723.016064	-1241.646979
207.65	-0.000541	-0.000641	10.526341	-321.271006	6480.058527	-1290.503495
208.16	-0.000718	-0.000684	10.525403	-327.516451	6602.209495	-1311.124094
208.67	-0.000682	-0.000679	10.528778	-330.466469	6747.952105	-1236.877647
209.18	-0.000831	-0.000682	10.529938	-331.790085	6805.167026	-1211.364767
209.69	-0.000770	-0.000641	10.530383	-332.679473	6835.902690	-1201.575542
210.20	-0.000846	-0.000638	10.530488	-332.218308	6827.699805	-1199.273792
210.71	-0.000746	-0.000598	10.528356	-332.204798	6778.220091	-1246.176088
211.22	-0.000781	-0.000589	10.540419	-330.232948	7011.046772	-980.782523
211.73	-0.000637	-0.000548	10.535073	-327.988360	6836.084374	-1098.392115
212.24	-0.000627	-0.000545	10.534158	-321.641986	6668.895247	-1118.517375
212.75	-0.000506	-0.000486	10.533821	-310.559701	6405.997967	-1125.945306
213.26	-0.000461	-0.000491	10.528786	-161.240837	2852.621722	-1236.700447
213.77	-0.000411	-0.000448	10.529049	-647.240767	14046.235048	-1230.918647
214.28	-0.000335	-0.000485	10.521436	-396.145851	8090.522858	-1398.417803
214.79	-0.000358	-0.000458	10.521939	-390.021107	7961.153885	-1387.332931
215.30	-0.000305	-0.000515	10.531098	-429.016367	9070.027611	-1185.852729
215.81	-0.000342	-0.000462	10.531527	-518.428943	11138.186315	-1176.397836
216.32	-0.000367	-0.000473	10.528405	-233.698967	4511.779526	-1245.098217
216.83	-0.000390	-0.000361	10.531899	-306.556351	6269.517194	-1168.227176
217.34	-0.000445	-0.000324	10.538269	-322.568622	6785.021211	-1028.091836
217.85	-0.000478	-0.000199	10.539157	-332.001222	7022.647702	-1008.545106
218.36	-0.000531	-0.000190	10.535150	-334.025521	6976.835819	-1096.696002
218.87	-0.000525	-0.000127	10.521999	-336.631038	6733.509125	-1386.020000
219.38	-0.000599	-0.000164	10.522238	-335.463008	6712.123414	-1380.771664
219.89	-0.000557	-0.000170	10.542101	-335.224096	7164.736412	-943.775670
220.40	-0.000608	-0.000239	10.529814	-332.348109	6815.148507	-1214.096789
220.91	-0.000559	-0.000255	10.528381	-331.019519	6751.517453	-1245.620842
221.42	-0.000568	-0.000308	10.542131	-326.166432	6956.923818	-943.115827
221.93	-0.000520	-0.000306	10.542544	-327.909751	7006.578663	-934.030609
222.44	-0.000505	-0.000324	10.584260	-319.236417	7769.019453	-16.280446
222.95	-0.000455	-0.000296	10.592424	-326.134806	8116.112610	163.334728
223.46	-0.000443	-0.000296	10.592747	-321.007763	8005.541372	170.442777
223.97	-0.000396	-0.000257	10.590889	-324.804387	8050.068623	129.549135
224.48	-0.000389	-0.000255	10.590936	-324.149193	8036.070303	130.583180
224.99	-0.000375	-0.000230	10.595148	-328.878027	8242.082595	223.260919
225.50	-0.000351	-0.000262	10.596906	-323.139927	8150.533398	261.932141
226.01	-0.000373	-0.000287	10.595106	-324.405114	8138.147353	222.335331
226.52	-0.000364	-0.000370	10.595117	-315.837781	7941.180342	222.573871
227.03	-0.000373	-0.000432	10.595109	-310.190336	7810.992338	222.396678
227.54	-0.000391	-0.000511	10.595117	-302.806076	7641.184660	222.564067
228.05	-0.000379	-0.000541	10.595072	-289.447275	7332.647967	221.589483
228.56	-0.000431	-0.000580	10.595088	-289.567191	7335.770669	221.935058
229.07	-0.000415	-0.000564	10.590555	-263.492897	6631.000689	122.205585
229.58	-0.000450	-0.000576	10.590195	-283.978618	7094.275910	114.289059
230.09	-0.000451	-0.000541	10.582130	-273.254444	6661.403320	-63.142805
230.60	-0.000465	-0.000523	10.583113	-291.917902	7113.695126	-41.522171
231.11	-0.000462	-0.000473	10.581677	-302.036212	7313.503818	-73.107259
231.62	-0.000489	-0.000436	10.580133	-306.963217	7391.306057	-107.081283
232.14	-0.000434	-0.000370	10.580128	-319.928061	7689.636792	-107.191499
232.65	-0.000465	-0.000336	10.580132	-320.288561	7698.036368	-107.095146
233.16	-0.000403	-0.000280	10.527722	-327.504973	6655.424254	-1260.110227
233.67	-0.000412	-0.000265	10.527204	-327.325742	6639.339245	-1271.518154
234.18	-0.000378	-0.000235	10.526986	-330.061379	6697.286283	-1276.312847
234.69	-0.000373	-0.000249	10.529451	-328.369655	6715.189506	-1222.087039
235.20	-0.000360	-0.000266	10.531495	-328.471005	6764.675915	-1177.107202
235.71	-0.000342	-0.000335	10.530873	-321.626548	6592.770745	-1190.793928
236.22	-0.000340	-0.000371	10.534001	-319.304651	6611.455945	-1121.984497
236.73	-0.000338	-0.000428	10.532564	-309.030119	6341.816021	-1153.581364
237.24	-0.000327	-0.000439	10.526124	-301.857330	6028.165746	-1295.269777
237.75	-0.000357	-0.000458	10.528024	-292.159501	5848.740239	-1253.474243
238.26	-0.000342	-0.000420	10.528261	-273.711970	5429.547223	-1248.263220
238.77	-0.000375	-0.000413	10.528140	-277.432847	5512.419256	-1250.916289
239.28	-0.000377	-0.000375	10.528488	-241.547716	4694.373899	-1243.267798
239.79	-0.000401	-0.000370	10.529019	-280.334609	5599.486727	-1231.580721
240.30	-0.000399	-0.000332	10.528289	-281.415109	5607.517229	-1247.646632
240.81	-0.000422	-0.000334	10.527120	-298.741240	5979.402628	-1273.360292
241.32	-0.000409	-0.000306	10.530437	-310.135815	6318.191289	-1200.396612
241.83	-0.000422	-0.000307	10.519924	-312.797189	6136.995840	-1431.679839
242.34	-0.000383	-0.000276	10.519794	-321.892734	6343.375466	-1434.538414
242.85	-0.000411	-0.000269	10.520737	-321.376300	6353.251425	-1413.777544
243.36	-0.000356	-0.000240	10.522060	-326.655990	6505.298102	-1384.673878
243.87	-0.000362	-0.000250	10.522307	-324.874082	6469.976180	-1379.239494
244.38	-0.000329	-0.000229	10.517007	-327.534160	6408.967481	-1495.847504
244.89	-0.000329	-0.000251	10.527626	-324.286214	6579.099049	-1262.237891
245.40	-0.000313	-0.000227	10.527707	-326.562744	6633.382567	-1260.445916
245.91	-0.000315	-0.000240	10.528373	-322.305985	6550.763552	-1245.784280
246.42	-0.000311	-0.000225	10.528597	-323.225899	6577.106097	-1240.855977
246.93	-0.000318	-0.000232	10.530224	-318.183227	6498.537224	-1205.073374
247.44	-0.000315	-0.000216	10.527827	-317.696253	6432.038557	-1257.813526
247.95	-0.000335	-0.000235	10.531278	-312.600341	6394.321933	-1181.892675
248.46	-0.000324	-0.000209	10.531256	-310.008876	6334.170399	-1182.366662
248.97	-0.000358	-0.000215	10.530313	-311.106534	6337.698959	-1203.103746
249.48	-0.000342	-0.000190	10.532309	-310.175785	6362.287588	-1159.210619
249.99	-0.000361	-0.000186	10.532332	-314.016135	6451.238564	-1158.688429
250.50	-0.000346	-0.000163	10.530963	-318.897035	6532.018314	-1188.809794
251.01	-0.000360	-0.000185	10.531117	-317.456892	6502.422392	-1185.418000
251.52	-0.000338	-0.000193	10.532301	-319.469228	6576.052097	-1159.370267
252.03	-0.000345	-0.000241	10.532130	-315.935570	6490.757974	-1163.138700
252.54	-0.000314	-0.000242	10.521252	-318.405229	6296.736402	-1402.447044
253.05	-0.000326	-0.000269	10.521133	-315.581681	6228.984232	-1405.075120
253.56	-0.000302	-0.000244	10.529531	-320.786688	6542.489156	-1220.315665
254.07	-0.000310	-0.000234	10.546812	-320.105097	6925.355741	-840.130523
254.58	-0.000293	-0.000207	10.594937	-324.085188	8126.871490	218.604350
255.09	-0.000300	-0.000204	10.592153	-322.883718	8035.014282	157.363857
255.60	-0.000287	-0.000194	10.577543	-324.044020	7724.777575	-164.051095
256.11	-0.000293	-0.000221	10.536921	-319.880674	6692.077486	-1057.727830
256.62	-0.000281	-0.000223	10.532708	-319.057499	6575.952491	-1150.424318
257.13	-0.000309	-0.000260	10.530513	-312.694159	6378.858221	-1198.703695
257.65	-0.000287	-0.000259	10.529257	-311.966378	6333.117153	-1226.355297
258.16	-0.000312	-0.000293	10.522668	-304.261414	6003.801268	-1371.301417
258.67	-0.000299	-0.000295	10.522156	-303.448962	5973.297239	-1382.559095
259.18	-0.000320	-0.000325	10.528030	-297.871594	5980.381763	-1253.330098
259.69	-0.000308	-0.000328	10.529815	-294.641588	5947.174620	-1214.080259
260.20	-0.000328	-0.000346	10.529534	-294.938957	5947.548218	-1220.253689
260.71	-0.000305	-0.000321	10.529513	-297.270275	6000.721085	-1220.724212
261.22	-0.000324	-0.000314	10.529911	-299.240311	6055.266455	-1211.952295
261.73	-0.000306	-0.000258	10.527718	-308.208527	6211.139248	-1260.193619
262.24	-0.000313	-0.000227	10.528206	-311.269981	6292.863047	-1249.462022
262.75	-0.000293	-0.000158	10.531897	-322.774153	6642.815175	-1168.256068
263.26	-0.000296	-0.000121	10.531732	-326.584513	6726.710514	-1171.897914
263.77	-0.000281	-0.000056	10.531767	-334.834764	6917.428804	-1171.134485
264.28	-0.000293	-0.000032	10.531684	-337.515451	6977.237523	-1172.946696
264.79	-0.000268	0.000021	10.531369	-343.225224	7101.400903	-1179.885053
265.30	-0.000291	0.000032	10.531570	-344.407791	7133.265096	-1175.457122
265.81	-0.000267	0.000060	10.531552	-347.095078	7194.699944	-1175.863070
266.32	-0.000279	0.000055	10.530133	-347.266853	7165.928106	-1207.080622
266.83	-0.000265	0.000066	10.530134	-348.012401	7183.117977	-1207.054269
267.34	-0.000282	0.000043	10.530123	-346.306466	7143.608050	-1207.283100
267.85	-0.000268	0.000052	10.530122	-347.246755	7165.217727	-1207.316913
268.36	-0.000295	0.000045	10.528185	-346.954691	7113.825716	-1249.926712
268.87	-0.000273	0.000069	10.528036	-350.174208	7184.500744	-1253.205429
269.38	-0.000293	0.000064	10.527835	-349.895363	7173.434910	-1257.638146
269.89	-0.000271	0.000086	10.527791	-353.412529	7253.385130	-1258.605169
270.40	-0.000282	0.000072	10.527754	-351.525087	7209.084939	-1259.417817
270.91	-0.000264	0.000093	10.527702	-354.690073	7280.747538	-1260.557057
271.42	-0.000273	0.000075	10.527075	-352.415791	7213.935218	-1274.349693
271.93	-0.000260	0.000066	10.527285	-350.114595	7165.816077	-1269.719822
272.44	-0.000271	0.000006	10.528301	-341.896215	7000.051927	-1247.379229
272.95	-0.000258	-0.000023	10.531573	-337.975647	6985.262725	-1175.396647
273.46	-0.000275	-0.000094	10.532326	-328.559150	6785.860933	-1158.834244
273.97	-0.000254	-0.000126	10.529799	-325.396322	6654.768668	-1214.432644
274.48	-0.000265	-0.000177	10.528196	-318.954649	6469.517877	-1249.694382
274.99	-0.000245	-0.000187	10.527801	-319.073859	6463.157157	-1258.379593
275.50	-0.000264	-0.000211	10.530361	-315.429249	6438.293486	-1202.066768
276.01	-0.000240	-0.000203	10.533181	-317.114947	6542.143995	-1140.018750
276.52	-0.000259	-0.000221	10.532734	-312.393371	6423.142607	-1149.855734
277.03	-0.000236	-0.000209	10.537266	-315.802748	6606.148926	-1050.150102
277.54	-0.000260	-0.000230	10.537389	-308.902658	6450.158400	-1047.434152
278.05	-0.000242	-0.000212	10.530687	-311.995910	6366.776649	-1194.895818
278.56	-0.000260	-0.000211	10.539001	-309.149602	6493.015623	-1011.974978
279.07	-0.000246	-0.000156	10.539142	-317.491883	6688.301550	-1008.875295
279.58	-0.000262	-0.000118	10.521554	-322.377102	6395.120061	-1395.815015
280.09	-0.000246	-0.000028	10.522417	-336.550747	6741.294420	-1376.830498
280.60	-0.000265	0.000026	10.522910	-345.097966	6949.433787	-1365.969998
281.11	-0.000245	0.000090	10.520422	-355.077610	7121.771029	-1420.715308
281.62	-0.000253	0.000115	10.525866	-359.119194	7340.354006	-1300.955296
282.13	-0.000240	0.000154	10.527948	-363.758197	7495.166078	-1255.145149
282.64	-0.000256	0.000140	10.526449	-362.402134	7429.375167	-1288.126226
283.15	-0.000236	0.000149	10.521651	-361.659453	7301.636942	-1393.668166
283.67	-0.000248	0.000116	10.527962	-357.864988	7359.832691	-1254.833926
284.18	-0.000227	0.000105	10.527476	-355.440809	7292.828539	-1265.518018
284.69	-0.000241	0.000072	10.527342	-351.324225	7194.975874	-1268.465883
285.20	-0.000223	0.000068	10.527869	-350.348514	7184.652501	-1256.888185
285.71	-0.000239	0.000029	10.528100	-345.295890	7073.672132	-1251.804533
286.22	-0.000221	0.000036	10.527756	-346.150699	7085.422821	-1259.365877
286.73	-0.000237	0.000011	10.527779	-342.706577	7006.676783	-1258.854129
287.24	-0.000224	0.000029	10.529881	-345.347807	7115.953898	-1212.611764
287.75	-0.000240	0.000030	10.529891	-345.952653	7130.101042	-1212.398288
288.26	-0.000220	0.000071	10.529897	-352.340544	7277.277529	-1212.274822
288.77	-0.000238	0.000076	10.529883	-353.851862	7311.754986	-1212.572992
289.28	-0.000216	0.000104	10.527944	-358.135057	7365.638214	-1255.226326
289.79	-0.000233	0.000090	10.527789	-356.558163	7325.748194	-1258.651289
290.30	-0.000210	0.000100	10.527539	-357.987291	7352.895103	-1264.137321
290.81	-0.000226	0.000060	10.527793	-351.561129	7210.814137	-1258.559752
291.32	-0.000208	0.000037	10.528132	-346.897793	7111.293471	-1251.092842
291.83	-0.000226	-0.000015	10.528075	-338.483568	6916.279275	-1252.353529
292.34	-0.000210	-0.000040	10.528183	-334.680926	6831.242322	-1249.970148
292.85	-0.000224	-0.000074	10.528167	-328.709114	6693.405031	-1250.321396
293.36	-0.000203	-0.000058	10.527746	-331.993722	6759.298584	-1259.590491
293.87	-0.000224	-0.000057	10.527508	-331.839576	6750.270095	-1264.817972
294.38	-0.000202	-0.000002	10.528001	-340.656619	6964.602665	-1253.974686
294.89	-0.000219	0.000022	10.528414	-344.522658	7063.124585	-1244.886818
295.40	-0.000200	0.000071	10.527990	-351.895858	7223.069687	-1254.219289
295.91	-0.000224	0.000080	10.528097	-353.950719	7272.827621	-1251.876745
296.42	-0.000201	0.000090	10.527722	-355.294860	7295.141843	-1260.106522
296.93	-0.000225	0.000040	10.527865	-347.749703	7124.731600	-1256.980868
297.44	-0.000208	0.000002	10.528140	-341.385664	6984.578664	-1250.928284
297.95	-0.000226	-0.000073	10.528693	-328.110163	6691.744123	-1238.753626
298.46	-0.000210	-0.000101	10.528447	-323.971659	6590.801233	-1244.167932
298.97	-0.000227	-0.000136	10.528073	-315.783559	6393.678935	-1252.404945
299.48	-0.000208	-0.000135	10.527850	-317.905293	6437.391936	-1257.297135
299.99	-0.000219	-0.000154	10.527947	-312.279601	6310.131465	-1255.159394
300.50	-0.000202	-0.000154	10.527690	-313.593367	6334.449565	-1260.810654
301.01	-0.000216	-0.000186	10.527607	-306.301470	6164.672720	-1262.642033
301.52	-0.000193	-0.000191	10.527811	-307.435291	6195.464535	-1258.166648
302.03	-0.000213	-0.000217	10.527294	-300.790328	6030.589197	-1269.528197
302.54	-0.000188	-0.000180	10.527401	-310.631811	6259.609182	-1267.169757
303.05	-0.000205	-0.000159	10.527581	-312.121719	6298.053942	-1263.213356
303.56	-0.000194	-0.000078	10.528059	-327.779039	6669.498955	-1252.702404
304.07	-0.000207	-0.000022	10.528121	-336.919286	6881.342340	-1251.330665
304.58	-0.000198	0.000038	10.527664	-347.627100	7117.276234	-1261.400383
305.09	-0.000212	0.000036	10.526329	-347.680147	7087.718972	-1290.760049
305.60	-0.000197	0.000046	10.527142	-349.445004	7147.102871	-1272.867185
306.11	-0.000210	0.000025	10.527807	-345.753458	7077.456020	-1258.242588
306.62	-0.000188	0.000027	10.527760	-345.921355	7080.223312	-1259.289637
307.13	-0.000205	0.000014	10.527764	-343.668878	7028.474857	-1259.191589
307.64	-0.000186	0.000036	10.527829	-347.469412	7117.463071	-1257.759555
308.15	-0.000200	0.000028	10.527582	-346.484588	7089.088985	-1263.200417
308.66	-0.000186	0.000047	10.527572	-349.865547	7166.699726	-1263.408161
309.18	-0.000201	0.000037	10.527922	-348.418568	7141.453664	-1255.716909
309.69	-0.000177	0.000052	10.528104	-350.702207	7198.210674	-1251.721551
310.20	-0.000194	0.000036	10.528054	-348.351285	7142.948023	-1252.814004
310.71	-0.000171	0.000051	10.528666	-350.718888	7211.557428	-1239.356314
311.22	-0.000186	0.000032	10.529883	-347.615188	7168.191542	-1212.570446
311.73	-0.000176	0.000052	10.529889	-350.828523	7242.296016	-1212.442053
312.24	-0.000187	0.000048	10.529885	-350.790942	7241.337680	-1212.530993
312.75	-0.000167	0.000084	10.529889	-356.982136	7383.944220	-1212.447636
313.26	-0.000184	0.000097	10.529878	-360.601128	7467.002884	-1212.685448
313.77	-0.000170	0.000149	10.529878	-369.314678	7667.597154	-1212.674647
314.28	-0.000191	0.000168	10.529889	-374.966005	7797.937879	-1212.437016
314.79	-0.000177	0.000213	10.529881	-380.890284	7934.113376	-1212.627207
315.30	-0.000199	0.000214	10.527537	-384.268384	7957.828646	-1264.183331
315.81	-0.000185	0.000227	10.527559	-385.696154	7991.189701	-1263.711822
316.32	-0.000199	0.000206	10.528125	-383.558681	7955.043061	-1251.256444
316.83	-0.000181	0.000200	10.528113	-379.806785	7868.412537	-1251.507467
317.34	-0.000193	0.000164	10.527905	-375.577338	7766.240456	-1256.097340
317.85	-0.000175	0.000169	10.527840	-374.884986	7748.817205	-1257.514406
318.36	-0.000187	0.000145	10.527891	-372.871765	7703.650073	-1256.392103
318.87	-0.000169	0.000156	10.529866	-373.111820	7754.725072	-1212.942681
319.38	-0.000184	0.000132	10.528466	-370.391404	7659.816775	-1243.739731
319.89	-0.000165	0.000130	10.528791	-368.094325	7614.430130	-1236.593719
320.40	-0.000177	0.000082	10.529834	-359.407125	7438.495089	-1213.660567
320.91	-0.000162	0.000061	10.528613	-353.669395	7278.261551	-1240.515824
321.42	-0.000182	0.000011	10.527809	-343.331945	7021.759491	-1258.198839
321.93	-0.000166	-0.000003	10.527600	-340.434559	6950.248503	-1262.791090
322.44	-0.000189	-0.000040	10.528486	-331.966099	6775.740162	-1243.300209
322.95	-0.000167	-0.000033	10.529829	-334.167505	6857.370600	-1213.772252
323.46	-0.000186	-0.000037	10.527929	-332.428309	6773.530595	-1255.557414
323.97	-0.000160	-0.000002	10.528347	-340.587412	6970.984846	-1246.367007
324.48	-0.000174	0.000012	10.529366	-343.788809	7068.186766	-1223.943704
324.99	-0.000155	0.000060	10.529830	-354.251686	7319.742377	-1213.733326
325.50	-0.000168	0.000076	10.527910	-359.153540	7388.292535	-1255.980677
326.01	-0.000150	0.000125	10.528002	-368.520296	7606.035329	-1253.955292
326.52	-0.000174	0.000140	10.528682	-374.030484	7748.570504	-1238.986090
327.03	-0.000152	0.000170	10.528002	-378.743083	7841.355660	-1253.959787
327.54	-0.000173	0.000158	10.527531	-379.458359	7846.964986	-1264.315466
328.05	-0.000158	0.000155	10.527877	-375.231660	7757.639027	-1256.711698
328.56	-0.000174	0.000116	10.528145	-369.549389	7633.015846	-1250.815836
329.07	-0.000161	0.000107	10.527669	-365.209578	7522.144609	-1261.280442
329.58	-0.000176	0.000085	10.528014	-362.090800	7458.303230	-1253.695161
330.09	-0.000154	0.000111	10.528646	-365.663121	7555.104613	-1239.798887
330.60	-0.000174	0.000103	10.528960	-366.499070	7581.597560	-1232.883364
331.11	-0.000158	0.000132	10.529669	-370.167216	7682.400115	-1217.274534
331.62	-0.000172	0.000130	10.528880	-371.920765	7704.566596	-1234.635241
332.13	-0.000153	0.000147	10.528682	-373.253464	7730.663843	-1239.005111
332.64	-0.000169	0.000131	10.528108	-372.091999	7690.692012	-1251.630322
333.15	-0.000157	0.000141	10.527344	-371.922245	7669.176630	-1268.426408
333.66	-0.000179	0.000115	10.527648	-368.430477	7595.807445	-1261.739425
334.17	-0.000155	0.000123	10.528196	-368.923741	7619.791088	-1249.692668
334.69	-0.000178	0.000098	10.529284	-365.023968	7555.125280	-1225.744285
335.20	-0.000152	0.000117	10.529910	-367.941174	7636.701887	-1211.985610
335.71	-0.000169	0.000110	10.529914	-369.131454	7664.190039	-1211.901369
336.22	-0.000155	0.000130	10.529915	-371.179320	7711.373103	-1211.861398
336.73	-0.000171	0.000119	10.529918	-372.335252	7738.037080	-1211.809117
337.24	-0.000150	0.000130	10.529919	-372.426957	7740.175053	-1211.783394
