Length [m]	OTDR [V]	Brillouin intensity [V]	Fitted Frequency [GHz]	Temperature [”]	Compensated Strain [レュ]	Uncompensated Strain [レュ]
0.51	0.006881	0.041671	10.505527	-153.551235	2201.336644	-1748.400076
1.02	0.006951	0.045424	10.484184	-129.689950	1159.813937	-2217.954212
1.53	0.006890	0.048616	10.470724	-87.708654	-117.008596	-2514.072546
2.04	0.006927	0.051261	10.460092	-48.826810	-1257.264151	-2747.978463
2.55	0.006930	0.053477	10.450283	-27.170739	-1982.007937	-2963.778934
3.06	0.006909	0.055293	10.445951	-21.754546	-2206.588604	-3059.075722
3.57	0.006909	0.056830	10.443040	-27.684069	-2137.228713	-3123.116819
4.08	0.006876	0.058093	10.442052	-29.391352	-2120.715986	-3144.854718
4.59	0.006907	0.059155	10.441843	-11.128828	-2545.924524	-3149.444423
5.10	0.006902	0.060000	10.440702	13.832584	-3146.846742	-3174.550312
5.61	0.006973	0.060683	10.440301	32.357279	-3582.542574	-3183.386993
6.12	0.006931	0.061151	10.441174	32.452014	-3564.575523	-3164.167875
6.63	0.006973	0.061503	10.441913	19.811365	-3256.552280	-3147.913499
7.14	0.006911	0.061733	10.440994	3.335325	-2898.479285	-3168.136099
7.65	0.006909	0.061922	10.441928	-1.929330	-2755.745793	-3147.586201
8.16	0.006903	0.062046	10.441640	7.372915	-2976.525761	-3153.925337
8.67	0.006926	0.062160	10.439944	26.977020	-3466.919566	-3191.236393
9.18	0.006924	0.062203	10.439457	42.420930	-3833.658723	-3201.944590
9.69	0.006964	0.062220	10.440052	49.982011	-3993.999126	-3188.863584
10.20	0.006896	0.062158	10.440340	47.126135	-3921.618584	-3182.530371
10.71	0.006888	0.062123	10.440129	44.373946	-3863.115970	-3187.158565
11.22	0.006868	0.062081	10.438065	43.026501	-3879.692703	-3232.559156
11.73	0.006872	0.062089	10.437110	49.161482	-4042.950389	-3253.576097
12.24	0.006874	0.062099	10.438138	55.636589	-4168.289850	-3230.953964
12.75	0.006923	0.062138	10.439246	59.317131	-4227.471510	-3206.588208
13.26	0.006889	0.062111	10.439315	55.254669	-4132.360872	-3205.067539
13.77	0.006901	0.062067	10.440116	50.704327	-4009.132367	-3187.438233
14.28	0.006860	0.061987	10.440443	42.830067	-3820.337122	-3180.252977
14.79	0.006859	0.061952	10.440752	37.495888	-3690.428005	-3173.462941
15.30	0.006838	0.061920	10.440467	29.389746	-3510.388945	-3179.722053
15.81	0.006848	0.061946	10.439425	24.615572	-3424.532089	-3202.656780
16.32	0.006812	0.061966	10.439483	21.271875	-3346.226953	-3201.383909
16.83	0.006763	0.061984	10.440638	22.271161	-3342.583067	-3175.965099
17.34	0.006658	0.061954	10.439663	24.357328	-3413.093453	-3197.416070
17.85	0.006558	0.061938	10.439034	29.896460	-3555.115163	-3211.259907
18.36	0.006443	0.061893	10.438348	31.884998	-3616.707687	-3226.347872
18.87	0.006366	0.061874	10.437809	31.269657	-3614.977448	-3238.209403
19.38	0.006276	0.061842	10.439652	29.022613	-3520.747521	-3197.664870
19.89	0.006237	0.061853	10.441128	31.905049	-3553.056426	-3165.190328
20.40	0.006182	0.061836	10.441741	38.125761	-3682.115584	-3151.702579
20.91	0.006168	0.061833	10.442356	45.630724	-3840.697832	-3138.176751
21.42	0.006107	0.061803	10.441995	51.130088	-3975.599461	-3146.101934
21.93	0.006106	0.061800	10.441262	53.819401	-4054.410183	-3162.226416
22.44	0.006061	0.061787	10.441618	47.229632	-3894.510299	-3154.398992
22.95	0.006064	0.061809	10.442638	41.700623	-3743.719593	-3131.968109
23.46	0.006046	0.061809	10.441908	37.919402	-3673.501208	-3148.016623
23.97	0.006067	0.061843	10.441658	38.279186	-3687.545303	-3153.513027
24.48	0.006054	0.061826	10.441418	38.464455	-3697.352098	-3158.799518
24.99	0.006083	0.061816	10.441979	41.173598	-3746.792212	-3146.471801
25.50	0.006048	0.061763	10.441482	38.180366	-3689.343447	-3157.398233
26.02	0.006063	0.061718	10.440965	34.838627	-3624.328706	-3168.760138
26.53	0.006037	0.061653	10.440873	29.625110	-3506.439837	-3170.786708
27.04	0.006048	0.061630	10.440310	29.099785	-3507.340553	-3183.181293
27.55	0.006051	0.061606	10.440257	29.839560	-3525.600766	-3184.355411
28.06	0.006083	0.061634	10.441446	34.139008	-3597.129866	-3158.177649
28.57	0.006073	0.061645	10.442047	36.929410	-3647.520287	-3144.972102
29.08	0.006090	0.061678	10.441252	40.537892	-3748.906102	-3162.447439
29.59	0.006060	0.061677	10.440796	39.891489	-3744.556570	-3172.492489
30.10	0.006064	0.061697	10.440764	39.777195	-3742.659241	-3173.192356
30.61	0.006038	0.061675	10.441011	38.873628	-3716.169031	-3167.764237
31.12	0.006049	0.061662	10.441831	40.563383	-3736.143064	-3149.712976
31.63	0.006043	0.061624	10.441843	41.159001	-3749.571799	-3149.443800
32.14	0.006068	0.061577	10.442055	41.910314	-3761.995898	-3144.797455
32.65	0.006044	0.061520	10.442659	40.694931	-3720.069470	-3131.491689
33.16	0.006055	0.061447	10.443296	39.231004	-3671.689868	-3117.487872
33.67	0.006024	0.061417	10.443786	36.903095	-3606.810654	-3106.716808
34.18	0.006039	0.061381	10.443800	34.288799	-3546.293625	-3106.395502
34.69	0.006026	0.061403	10.444035	37.915067	-3624.362198	-3101.237859
35.20	0.006056	0.061389	10.444346	34.067692	-3528.617967	-3094.389813
35.71	0.006053	0.061409	10.444391	37.492605	-3606.429521	-3093.408467
36.22	0.006075	0.061384	10.444902	35.331571	-3544.881467	-3082.150661
36.73	0.006056	0.061379	10.445213	35.102180	-3532.436808	-3075.316747
37.24	0.006065	0.061341	10.444159	36.029126	-3578.083473	-3098.504931
37.75	0.006046	0.061325	10.444247	35.953646	-3574.306247	-3096.559248
38.26	0.006057	0.061290	10.444452	37.520132	-3605.640233	-3092.051096
38.77	0.006051	0.061260	10.444325	35.656705	-3565.686293	-3094.857012
39.28	0.006078	0.061221	10.444108	35.693059	-3571.525935	-3099.629211
39.79	0.006064	0.061174	10.444540	31.583532	-3466.948366	-3090.111455
40.30	0.006071	0.061135	10.444646	33.563700	-3510.093840	-3087.786495
40.81	0.006047	0.061097	10.444421	31.109466	-3458.792933	-3092.741759
41.32	0.006042	0.061087	10.445118	34.346152	-3517.229995	-3077.412176
41.83	0.006026	0.061082	10.444929	34.464539	-3524.296104	-3081.552967
42.34	0.006045	0.061107	10.445258	34.949506	-3527.890817	-3074.332801
42.85	0.006025	0.061111	10.445778	33.698157	-3487.094602	-3062.894910
43.36	0.006057	0.061121	10.445832	33.871481	-3489.838891	-3061.706765
43.87	0.006029	0.061101	10.444849	31.619809	-3460.672688	-3083.328470
44.38	0.006047	0.061102	10.443952	35.292142	-3565.892949	-3103.059427
44.89	0.006030	0.061086	10.444455	35.630032	-3562.066550	-3091.989838
45.40	0.006047	0.061105	10.444994	36.792205	-3576.385275	-3080.128875
45.91	0.006029	0.061109	10.445247	36.617992	-3566.536467	-3074.559522
46.42	0.006054	0.061133	10.445419	36.676346	-3563.918472	-3070.780835
46.93	0.006036	0.061121	10.445296	33.952315	-3504.046562	-3073.484540
47.44	0.006050	0.061119	10.445483	35.769900	-3541.583006	-3069.379162
47.95	0.006027	0.061084	10.445929	34.904979	-3511.388693	-3059.569082
48.46	0.006037	0.061084	10.446240	37.111640	-3555.002185	-3052.717114
48.97	0.006013	0.061059	10.447626	37.017684	-3520.870203	-3022.221577
49.48	0.006025	0.061046	10.453923	38.096499	-3400.490891	-2883.701893
49.99	0.006006	0.060973	10.474902	37.095676	-2893.608047	-2422.160410
50.50	0.006026	0.060855	10.506708	38.343415	-2188.781301	-1722.424031
51.01	0.006010	0.060577	10.535240	39.335513	-1553.579078	-1094.716352
51.53	0.006029	0.060149	10.555248	42.600386	-1167.283810	-654.535397
52.04	0.006007	0.059509	10.561466	44.262999	-1062.162641	-517.751179
52.55	0.006031	0.058745	10.564350	46.143059	-1038.929686	-454.305711
53.06	0.006008	0.057867	10.565704	44.979661	-980.909746	-424.506758
53.57	0.006034	0.056999	10.565879	44.636600	-968.981035	-420.661037
54.08	0.006018	0.056144	10.566380	41.256341	-879.605293	-409.630711
54.59	0.006045	0.055390	10.567381	39.454026	-815.046757	-387.624255
55.10	0.006030	0.054702	10.567164	35.589391	-731.085187	-392.394739
55.61	0.006050	0.054133	10.566746	35.413600	-736.676062	-401.588003
56.12	0.006021	0.053642	10.567792	32.064391	-635.456766	-378.578245
56.63	0.006040	0.053264	10.568492	32.239889	-623.359048	-363.184492
57.14	0.006012	0.052947	10.568296	29.807643	-571.877193	-367.484324
57.65	0.006025	0.052721	10.568449	29.349479	-557.811571	-364.127679
58.16	0.006007	0.052522	10.568144	26.719270	-504.291337	-370.830089
58.67	0.006021	0.052400	10.568259	26.650604	-500.054190	-368.296055
59.18	0.006004	0.052277	10.568485	24.043309	-434.829799	-363.330641
59.69	0.006014	0.052198	10.568555	25.548513	-467.856364	-361.782736
60.20	0.005998	0.052106	10.568962	24.068714	-424.402339	-352.825971
60.71	0.006013	0.052042	10.568736	25.169673	-454.969422	-357.808597
61.22	0.005990	0.051965	10.568389	23.975028	-435.460435	-365.431561
61.73	0.006010	0.051943	10.569000	23.644793	-413.784168	-352.005952
62.24	0.005993	0.051905	10.569530	21.464643	-351.362519	-340.334587
62.75	0.006008	0.051898	10.569115	21.983505	-372.880877	-349.467599
63.26	0.005994	0.051868	10.568779	20.784959	-353.052838	-356.871894
63.77	0.006004	0.051860	10.569142	22.484118	-383.777206	-348.868919
64.28	0.006009	0.051835	10.569188	22.102932	-373.950989	-347.865940
64.79	0.006129	0.051834	10.569579	23.622986	-399.930932	-339.270136
65.30	0.006381	0.051809	10.569443	22.795719	-384.015266	-342.253694
65.81	0.006998	0.051814	10.569214	23.217174	-398.995364	-347.288746
66.32	0.008019	0.051780	10.569129	21.466305	-360.646330	-349.153972
66.83	0.009452	0.051769	10.569059	22.822538	-393.485439	-350.698443
67.34	0.010942	0.051729	10.569942	21.905815	-352.013000	-331.267597
67.85	0.012083	0.051694	10.569857	23.524188	-391.245591	-333.154593
68.36	0.012589	0.051642	10.569111	22.242409	-378.944197	-349.566265
68.87	0.012412	0.051620	10.569327	22.857249	-388.117255	-344.815493
69.38	0.011716	0.051580	10.568918	20.777626	-349.660398	-353.796842
69.89	0.010757	0.051581	10.568779	21.005562	-358.115273	-356.856835
70.40	0.009751	0.051554	10.568845	19.481079	-321.495000	-355.400049
70.91	0.008885	0.051552	10.568853	20.604077	-347.170747	-355.232852
71.42	0.008171	0.051514	10.569432	19.801429	-315.353001	-342.506731
71.93	0.007658	0.051495	10.570109	20.774494	-322.125004	-327.599465
72.44	0.007259	0.051466	10.570010	19.925687	-304.872728	-329.781022
72.95	0.007004	0.051492	10.570013	20.492132	-317.848163	-329.720022
73.46	0.006790	0.051517	10.570016	19.067640	-284.976034	-329.642941
73.97	0.006668	0.051603	10.569547	20.486995	-328.473873	-339.968746
74.48	0.006544	0.051667	10.569456	20.527292	-331.490407	-341.961382
74.99	0.006488	0.051757	10.569428	22.563022	-379.003828	-342.582957
75.50	0.006415	0.051800	10.569997	23.161107	-379.660611	-330.076365
76.01	0.006391	0.051851	10.569569	24.467084	-419.594786	-339.492390
76.52	0.006347	0.051865	10.569612	23.459405	-395.390930	-338.531409
77.03	0.006339	0.051894	10.569975	24.827802	-418.519011	-330.545353
77.55	0.006300	0.051882	10.570028	22.846765	-371.695561	-329.380959
78.06	0.006303	0.051885	10.569815	24.508267	-414.857415	-334.069074
78.57	0.006279	0.051842	10.570276	23.142854	-372.789205	-323.922504
79.08	0.006286	0.051813	10.570908	23.964142	-377.119222	-310.018624
79.59	0.006261	0.051758	10.571057	22.545751	-341.028063	-306.736922
80.10	0.006277	0.051726	10.570627	23.394317	-370.488486	-316.206072
80.61	0.006261	0.051690	10.569777	21.665800	-350.297411	-334.901461
81.12	0.006284	0.051700	10.570516	22.800944	-359.399084	-318.657461
81.63	0.006274	0.051697	10.570583	21.955106	-338.361517	-317.163012
82.14	0.006305	0.051730	10.569753	23.554367	-394.339184	-335.442918
82.65	0.006303	0.051743	10.570051	23.084694	-376.649160	-328.881640
83.16	0.006326	0.051772	10.570449	24.717119	-405.040395	-320.118486
83.67	0.006322	0.051776	10.570794	24.024568	-381.155240	-312.541735
84.18	0.006342	0.051802	10.570376	25.341292	-421.106936	-321.738476
84.69	0.006331	0.051803	10.570218	24.151466	-397.355470	-325.208721
85.20	0.006345	0.051831	10.569892	25.324019	-431.870406	-332.385103
85.71	0.006332	0.051829	10.570743	24.117018	-384.444920	-313.649702
86.22	0.006351	0.051832	10.571139	25.471388	-406.499923	-304.948051
86.73	0.006308	0.051784	10.571098	23.719311	-367.096715	-305.834251
87.24	0.006285	0.051751	10.571572	24.892739	-383.188212	-295.417200
87.75	0.006201	0.051667	10.571078	22.693138	-343.945097	-306.283089
88.26	0.006134	0.051596	10.571348	23.194180	-349.251675	-300.342891
88.77	0.006055	0.051516	10.571122	20.998517	-303.925050	-305.319209
89.28	0.006102	0.051549	10.570512	22.121542	-343.847526	-318.741454
89.79	0.006161	0.051663	10.571872	21.700299	-302.767705	-288.805094
90.30	0.006179	0.051813	10.572873	24.484874	-343.801599	-266.802254
90.81	0.006180	0.051861	10.572391	23.725763	-337.428499	-277.391912
91.32	0.006226	0.051828	10.572103	25.136826	-376.570341	-283.744584
91.83	0.006254	0.051764	10.571744	23.930537	-357.081749	-291.642706
92.34	0.006254	0.051747	10.571477	24.919860	-386.002290	-297.506038
92.85	0.006266	0.051698	10.571688	23.721768	-353.559302	-292.866892
93.36	0.006266	0.051687	10.572570	24.641953	-354.395776	-273.458854
93.87	0.006269	0.051660	10.571924	23.859315	-351.280885	-287.673153
94.38	0.006283	0.051666	10.572204	24.899758	-368.782804	-281.521697
94.89	0.006292	0.051636	10.572115	23.754258	-344.465085	-283.478436
95.40	0.006304	0.051612	10.571680	24.998763	-383.130870	-293.034375
95.91	0.006304	0.051572	10.570917	23.500639	-366.249522	-309.827831
96.42	0.006308	0.051587	10.570870	24.636461	-393.476814	-310.859050
96.93	0.006308	0.051595	10.571001	23.773811	-370.596944	-307.976380
97.44	0.006310	0.051615	10.571661	24.757836	-378.028584	-293.457692
97.95	0.006321	0.051555	10.571119	23.730849	-366.886184	-305.380059
98.46	0.006325	0.051474	10.569448	22.846229	-385.057597	-342.138860
98.97	0.006325	0.051367	10.566344	15.031583	-276.754826	-410.426719
99.48	0.006327	0.051351	10.561880	0.995633	-56.619677	-508.648071
99.99	0.006329	0.051407	10.555419	-28.578386	475.157168	-650.786558
100.50	0.006330	0.051565	10.546462	-67.198165	1157.606276	-847.829944
101.01	0.006330	0.051737	10.538596	-107.512719	1904.205023	-1020.895512
101.52	0.006330	0.051941	10.533568	-138.167718	2493.928145	-1131.495542
102.03	0.006330	0.052091	10.528310	-156.543362	2795.658986	-1247.175788
102.54	0.006330	0.052257	10.524852	-163.287191	2871.143244	-1323.255804
103.06	0.006330	0.052415	10.523151	-160.252296	2762.039892	-1360.688108
103.57	0.006330	0.052634	10.522575	-148.881936	2487.030918	-1373.343728
104.08	0.006330	0.052841	10.522183	-131.195363	2070.833731	-1381.984515
104.59	0.006330	0.053036	10.523476	-108.992539	1589.562385	-1353.529453
105.10	0.006330	0.053134	10.525826	-86.157024	1118.100492	-1301.824133
105.61	0.006330	0.053188	10.528883	-63.863730	675.409939	-1234.580069
106.12	0.006335	0.053155	10.531845	-45.649129	324.434791	-1169.410477
106.63	0.006339	0.053146	10.533567	-29.609811	-5.067672	-1131.524101
107.14	0.006344	0.053136	10.535502	-18.418715	-218.052050	-1088.950516
107.65	0.006368	0.053180	10.536489	-8.079015	-433.320302	-1067.250995
108.16	0.006369	0.053217	10.537555	-1.804215	-553.166391	-1043.787150
108.67	0.006398	0.053261	10.538678	4.870800	-680.926811	-1019.084696
109.18	0.006423	0.053257	10.539034	7.804618	-740.257359	-1011.257958
109.69	0.006424	0.053268	10.538940	11.809528	-834.601249	-1013.310983
110.20	0.007247	0.053247	10.539431	12.974263	-850.107802	-1002.526846
110.71	0.016008	0.053275	10.539683	15.595530	-904.621791	-996.968760
111.22	0.059248	0.053317	10.538792	16.328557	-942.061734	-1016.586681
111.73	0.154781	0.053397	10.538818	19.029619	-1003.639364	-1016.014445
112.24	0.154781	0.053456	10.539391	19.261006	-995.738305	-1003.396651
112.75	0.154781	0.053527	10.539339	21.114141	-1039.592134	-1004.536848
113.26	0.154781	0.053553	10.539666	20.894176	-1026.989571	-997.345325
113.77	0.154781	0.053595	10.539330	22.622606	-1074.523268	-1004.734111
114.28	0.154781	0.053593	10.538753	21.659281	-1065.659575	-1017.432228
114.79	0.154781	0.053616	10.539361	22.773037	-1077.275438	-1004.056160
115.30	0.154781	0.053603	10.539105	21.334309	-1050.066900	-1009.694198
115.81	0.154781	0.053593	10.538931	21.819157	-1065.233646	-1013.515275
116.32	0.154781	0.053533	10.538969	19.673428	-1014.971862	-1012.687444
116.83	0.154781	0.053515	10.538484	19.685026	-1026.416760	-1023.350120
117.34	0.154781	0.053472	10.539033	18.096351	-977.179635	-1011.267598
117.85	0.154781	0.053462	10.539702	18.247970	-965.237286	-996.546400
118.36	0.154781	0.053429	10.539652	16.921881	-935.864628	-997.646685
118.87	0.154781	0.053404	10.539933	17.355927	-939.393693	-991.482054
119.38	0.154781	0.053345	10.539783	16.190630	-916.022624	-994.776511
119.89	0.154781	0.053320	10.539465	16.741299	-936.025941	-1001.765882
120.40	0.154781	0.053293	10.540314	15.508381	-888.064676	-983.088509
120.91	0.154781	0.053329	10.539375	18.131755	-970.114645	-1003.750856
121.42	0.154781	0.053359	10.538696	19.673860	-1021.261346	-1018.677517
121.93	0.154781	0.053419	10.538964	24.917158	-1135.791283	-1012.792887
122.44	0.104496	0.053456	10.539397	29.113353	-1222.406564	-1003.273214
122.95	0.066464	0.053505	10.539530	34.259574	-1337.795204	-1000.339384
123.46	0.037485	0.053527	10.539607	31.529198	-1273.177230	-998.655120
123.97	0.016002	0.053571	10.539304	28.307808	-1205.990723	-1005.302672
124.48	0.001184	0.053585	10.539281	27.345812	-1184.383294	-1005.815305
124.99	0.000000	0.053615	10.538827	27.470401	-1197.734645	-1015.815424
125.50	0.000000	0.053627	10.538637	24.846048	-1141.700977	-1019.991662
126.01	0.000000	0.053651	10.539131	23.411972	-1097.299131	-1009.126775
126.52	0.000000	0.053647	10.539175	23.384220	-1095.647487	-1008.160652
127.03	0.000000	0.053663	10.539403	22.775440	-1076.374741	-1003.144212
127.54	0.000000	0.053645	10.539570	22.657265	-1069.798058	-999.465638
128.05	0.000000	0.053634	10.539510	22.395296	-1065.146219	-1000.780680
128.56	0.000000	0.053588	10.539011	21.270980	-1050.781390	-1011.766370
129.08	0.000000	0.053549	10.538691	20.518027	-1040.827800	-1018.805367
129.59	-0.003452	0.053474	10.539061	19.343882	-1005.269419	-1010.668591
130.10	0.001110	0.053438	10.539225	19.100485	-995.877994	-1007.054706
130.61	0.004710	0.053389	10.539438	18.556059	-978.430272	-1002.366048
131.12	0.007183	0.053399	10.539573	18.623644	-976.881336	-999.404441
131.63	0.008266	0.053396	10.539139	18.471519	-983.385760	-1008.949497
132.14	0.007972	0.053432	10.539148	18.074830	-974.049794	-1008.754591
132.65	0.006326	0.053433	10.539353	17.865262	-964.491587	-1004.238794
133.16	0.003606	0.053446	10.540758	17.952255	-934.074703	-973.313736
133.67	0.000054	0.053407	10.544623	17.567271	-836.090365	-888.299674
134.18	-0.003977	0.053385	10.548160	17.357950	-749.699594	-810.487463
134.69	-0.008071	0.053318	10.549453	16.840902	-707.977373	-782.042054
135.20	-0.011688	0.053273	10.551424	16.537481	-655.526192	-738.671304
135.71	-0.014573	0.053186	10.556384	15.959461	-527.833239	-629.556829
136.22	-0.016493	0.053098	10.562118	15.372985	-382.087762	-503.407648
136.73	-0.017370	0.052972	10.566310	14.536343	-266.138810	-411.174811
137.24	-0.017126	0.052870	10.566814	13.852631	-238.780870	-400.091278
137.75	-0.015887	0.052736	10.563121	12.965322	-303.536526	-481.346057
138.26	-0.013785	0.052645	10.561346	12.359694	-330.519400	-520.383878
138.77	-0.011090	0.052540	10.564347	11.658363	-245.165058	-454.364180
139.28	-0.008014	0.052482	10.567527	11.269091	-162.860708	-384.401486
139.79	-0.004851	0.052417	10.569139	10.837435	-115.762144	-348.952488
140.30	-0.001997	0.052399	10.567473	10.418503	-144.521897	-385.585696
140.81	0.000320	0.052369	10.562530	10.039864	-249.823814	-494.348109
141.32	0.001974	0.052394	10.561655	9.883951	-266.416858	-513.599925
141.83	0.002857	0.052392	10.564798	8.577880	-163.855771	-444.445827
142.34	0.003021	0.052430	10.569121	8.783257	-68.885522	-349.343432
142.85	0.002480	0.052422	10.571222	7.155961	17.041614	-303.110191
143.36	0.001376	0.052424	10.568971	5.829290	-4.350049	-352.647618
143.87	-0.000130	0.052373	10.564293	5.452862	-103.573502	-455.563176
144.38	-0.001835	0.052340	10.563601	-33.794402	783.942011	-470.771363
144.89	-0.003659	0.052279	10.567255	-200.610721	4708.272644	-390.380032
145.40	-0.005496	0.052245	10.570008	-301.121915	7085.480124	-329.831693
145.91	-0.006550	0.052194	10.571368	-324.082526	7645.399346	-299.904047
146.42	-0.007964	0.052153	10.570258	-324.093733	7620.064505	-324.317172
146.93	-0.008294	0.052009	10.567549	-324.133128	7558.484284	-383.923914
147.44	-0.008469	0.051684	10.566498	-324.221674	7536.292810	-407.036820
147.95	-0.008192	0.050875	10.568433	-324.441940	7585.989283	-364.467831
148.46	-0.007652	0.049348	10.569551	-324.858014	7621.341250	-339.881812
148.97	-0.006634	0.046815	10.567484	-325.547788	7589.559002	-385.345501
149.48	-0.005567	0.043258	10.563876	-326.516867	7528.658423	-464.718453
149.99	-0.004665	0.038786	10.556526	-327.734784	7387.177386	-626.421660
150.50	-0.003470	0.033775	10.553725	-329.099782	7353.982129	-688.060184
151.01	-0.002565	0.028535	10.554480	-330.527266	7404.258204	-671.447077
151.52	-0.002017	0.023446	10.546366	-331.913551	7249.041282	-849.950126
152.03	-0.001382	0.018693	10.526176	-333.208024	6813.208979	-1294.117545
152.54	-0.001204	0.014485	10.527199	-334.354496	6863.179609	-1271.625202
153.05	-0.001389	0.010846	10.550169	-335.345664	7415.751143	-766.289036
153.56	-0.001285	0.007865	10.547519	-336.157556	7373.341362	-824.571930
154.07	-0.001614	0.005479	10.542887	-336.807597	7281.470556	-926.481914
154.59	-0.002083	0.003669	10.542619	-337.300669	7286.643553	-932.374536
155.10	-0.002197	0.002304	10.542683	-337.672273	7296.674258	-930.966078
155.61	-0.002833	0.001333	10.543267	-337.936893	7316.216230	-918.135581
156.12	-0.002880	0.000611	10.550095	-338.133582	7478.220651	-767.917734
156.63	-0.003278	0.000101	10.544544	-338.259436	7353.100132	-890.034415
157.14	-0.003404	-0.000298	10.541767	-338.488720	7294.330948	-951.129382
157.65	-0.003541	-0.000582	10.541978	-338.954794	7309.936708	-946.477285
158.16	-0.003735	-0.000833	10.542808	-340.494358	7364.505015	-928.230925
158.67	-0.003648	-0.001005	10.543791	-374.086395	8160.470765	-906.588199
159.18	-0.003856	-0.001160	10.544883	-Inf	Inf	-882.582690
159.69	-0.003774	-0.001239	10.544882	-Inf	Inf	-882.585189
160.20	-0.003907	-0.001291	10.544877	-Inf	Inf	-882.709383
160.71	-0.003766	-0.001284	10.544866	-Inf	Inf	-882.939851
161.22	-0.003731	-0.001252	10.542984	-Inf	Inf	-924.341088
161.73	-0.003457	-0.001185	10.541285	-Inf	Inf	-961.733099
162.24	-0.003493	-0.001130	10.541970	-Inf	Inf	-946.649736
162.75	-0.003157	-0.001061	10.541945	-Inf	Inf	-947.208837
163.26	-0.002932	-0.001025	10.542024	-Inf	Inf	-945.476552
163.77	-0.002539	-0.000975	10.542884	-326.385119	7041.478831	-926.548555
164.28	-0.002320	-0.000986	10.543233	-375.730916	8185.442447	-918.878922
164.79	-0.001947	-0.000990	10.543021	-347.164856	7522.971970	-923.543090
165.30	-0.001722	-0.001043	10.542681	-344.422371	7452.000088	-931.022464
165.81	-0.001532	-0.001074	10.541694	-343.775441	7414.342953	-952.738147
166.32	-0.001378	-0.001113	10.539919	-344.188126	7382.906662	-991.787352
166.83	-0.001367	-0.001114	10.539925	-345.721222	7418.344294	-991.647808
167.34	-0.001466	-0.001123	10.539929	-351.431012	7549.874582	-991.559218
167.85	-0.001615	-0.001071	10.539919	-1177.400987	26563.197383	-991.772389
168.36	-0.001902	-0.001040	10.539928	-327.274630	6993.777161	-991.583811
168.87	-0.002237	-0.000982	10.539931	-333.169779	7129.550705	-991.517759
169.38	-0.002527	-0.000950	10.539926	-334.873849	7168.669629	-991.620973
169.89	-0.002890	-0.000898	10.539929	-335.701097	7187.775025	-991.561421
170.40	-0.003140	-0.000876	10.539925	-336.060371	7195.956896	-991.645818
170.91	-0.003351	-0.000845	10.539916	-336.248407	7200.067501	-991.853694
171.42	-0.003463	-0.000850	10.539924	-336.208657	7199.345085	-991.669972
171.93	-0.003461	-0.000853	10.539922	-336.036987	7195.342771	-991.718171
172.44	-0.003312	-0.000886	10.539919	-335.590957	7185.009793	-991.780664
172.95	-0.003137	-0.000910	10.539911	-334.841121	7167.561787	-991.959075
173.46	-0.002823	-0.000957	10.539897	-333.262527	7130.904152	-992.263320
173.97	-0.002499	-0.000963	10.539922	-329.929038	7054.752550	-991.706077
174.48	-0.002122	-0.000969	10.539916	-317.837753	6776.274087	-991.840784
174.99	-0.001785	-0.000930	10.539914	-460.608465	10062.747194	-991.897857
175.50	-0.001463	-0.000910	10.539917	-357.729470	7694.585036	-991.824302
176.01	-0.001229	-0.000860	10.539894	-350.992192	7538.960974	-992.333912
176.52	-0.001096	-0.000855	10.539852	-350.225919	7520.356617	-993.254435
177.03	-0.001022	-0.000840	10.539835	-352.574921	7574.033410	-993.632608
177.54	-0.001084	-0.000856	10.539495	-364.527254	7841.340814	-1001.102840
178.05	-0.001206	-0.000850	10.539724	-62.240481	888.069922	-996.078411
178.56	-0.001404	-0.000870	10.539709	-318.310485	6782.377942	-996.398792
179.07	-0.001664	-0.000867	10.539905	-328.306471	7016.999835	-992.089327
179.58	-0.001908	-0.000898	10.539909	-331.412133	7088.587544	-991.997352
180.09	-0.002183	-0.000895	10.539893	-332.541594	7114.206655	-992.360486
180.61	-0.002375	-0.000922	10.539891	-333.419028	7134.369331	-992.394401
181.12	-0.002557	-0.000923	10.539909	-333.609772	7139.182387	-991.991663
181.63	-0.002622	-0.000967	10.539912	-333.488492	7136.441871	-991.942739
182.14	-0.002651	-0.000972	10.539910	-333.298659	7132.028648	-991.984061
182.65	-0.002567	-0.000985	10.539908	-332.872314	7122.174305	-992.022243
183.16	-0.002462	-0.000952	10.539909	-332.249741	7107.864995	-992.001153
183.67	-0.002247	-0.000943	10.539915	-331.156584	7082.845884	-991.862847
184.18	-0.002047	-0.000890	10.539912	-330.259406	7062.108714	-991.943401
184.69	-0.001801	-0.000907	10.539905	-327.281552	6993.410431	-992.085618
185.20	-0.001587	-0.000880	10.539912	-323.829975	6914.124432	-991.925244
185.71	-0.001382	-0.000925	10.539925	-318.965696	6802.443970	-991.645212
186.22	-0.001245	-0.000895	10.539923	-311.001659	6619.057193	-991.699927
186.73	-0.001153	-0.000920	10.539920	-306.061198	6505.267875	-991.758697
187.24	-0.001121	-0.000853	10.539913	-312.404495	6651.136873	-991.903231
187.75	-0.001152	-0.000867	10.539917	-309.849983	6592.410118	-991.829550
188.26	-0.001232	-0.000782	10.539909	-317.877033	6777.017489	-991.994185
188.77	-0.001335	-0.000791	10.539915	-322.299407	6878.942609	-991.876295
189.28	-0.001491	-0.000726	10.539898	-324.369153	6926.195681	-992.250012
189.79	-0.001627	-0.000750	10.539907	-327.134684	6990.076504	-992.040861
190.30	-0.001782	-0.000711	10.539892	-327.896157	7007.252304	-992.377639
190.81	-0.001894	-0.000755	10.539906	-328.594205	7023.637687	-992.075674
191.32	-0.001994	-0.000736	10.539885	-329.187857	7036.821328	-992.535492
191.83	-0.002019	-0.000779	10.539893	-329.026389	7033.287456	-992.360859
192.34	-0.002040	-0.000764	10.539903	-329.675902	7048.473511	-992.137168
192.85	-0.001978	-0.000780	10.539912	-329.291195	7039.829398	-991.935233
193.36	-0.001917	-0.000748	10.539914	-330.116901	7058.886101	-991.888254
193.87	-0.001794	-0.000737	10.539893	-330.069222	7057.289815	-992.364013
194.38	-0.001696	-0.000701	10.539861	-330.730003	7071.763291	-993.067488
194.89	-0.001559	-0.000687	10.539881	-330.609850	7069.477938	-992.609110
195.40	-0.001456	-0.000646	10.539879	-330.994073	7078.266352	-992.662791
195.91	-0.001349	-0.000646	10.539868	-330.424192	7064.896832	-992.902273
196.42	-0.001278	-0.000636	10.539892	-330.621108	7069.972594	-992.384471
196.93	-0.001219	-0.000673	10.539903	-329.318018	7040.240395	-992.132166
197.44	-0.001212	-0.000697	10.539909	-328.283101	7016.552465	-992.002917
197.95	-0.001212	-0.000753	10.539886	-325.800772	6958.872769	-992.515462
198.46	-0.001258	-0.000781	10.538560	-324.108339	6889.346652	-1021.673372
198.97	-0.001304	-0.000814	10.539135	-320.667611	6823.387088	-1009.039074
199.48	-0.001381	-0.000799	10.519005	-318.721835	6314.350268	-1451.885443
199.99	-0.001441	-0.000790	10.519885	-316.566779	6285.039477	-1432.523203
200.50	-0.001514	-0.000742	10.519898	-315.580317	6262.622586	-1432.245488
201.01	-0.001561	-0.000726	10.519848	-315.907851	6269.000020	-1433.354199
201.52	-0.001606	-0.000698	10.519672	-318.215129	6318.055035	-1437.224900
202.03	-0.001609	-0.000714	10.519314	-319.672680	6343.365971	-1445.086398
202.54	-0.001611	-0.000711	10.506985	-322.529001	6124.760487	-1716.336004
203.05	-0.001574	-0.000743	10.505282	-324.290539	6126.041654	-1753.794740
203.56	-0.001546	-0.000744	10.506535	-325.886109	6191.667123	-1726.230722
204.07	-0.001482	-0.000766	10.506814	-327.128755	6226.712803	-1720.087192
204.58	-0.001425	-0.000742	10.505876	-328.329126	6232.717227	-1740.717967
205.09	-0.001351	-0.000725	10.505132	-329.177746	6235.075435	-1757.102936
205.60	-0.001301	-0.000669	10.505102	-330.151015	6256.785395	-1757.765299
206.12	-0.001230	-0.000633	10.505105	-330.583914	6266.819723	-1757.699334
206.63	-0.001206	-0.000593	10.505111	-330.749648	6270.793202	-1757.548300
207.14	-0.001169	-0.000591	10.505095	-330.353445	6261.288908	-1757.914443
207.65	-0.001163	-0.000574	10.505092	-329.729049	6246.859143	-1757.968231
208.16	-0.001156	-0.000582	10.505094	-328.490412	6218.382571	-1757.933480
208.67	-0.001183	-0.000548	10.505100	-327.417579	6193.833005	-1757.793564
209.18	-0.001197	-0.000530	10.505099	-325.783092	6156.168146	-1757.831255
209.69	-0.001235	-0.000486	10.505072	-324.305330	6121.541785	-1758.411978
210.20	-0.001257	-0.000472	10.505070	-322.114106	6071.055464	-1758.455009
210.71	-0.001291	-0.000455	10.505068	-320.772869	6040.128950	-1758.504317
211.22	-0.001302	-0.000467	10.505067	-319.046873	6000.373269	-1758.527053
211.73	-0.001321	-0.000451	10.505066	-320.749171	6039.539466	-1758.546250
212.24	-0.001317	-0.000463	10.505065	-322.106759	6070.773512	-1758.562623
212.75	-0.001315	-0.000442	10.505066	-325.032833	6138.134769	-1758.558785
213.26	-0.001291	-0.000437	10.505066	-327.220174	6188.501938	-1758.544165
213.77	-0.001282	-0.000405	10.505066	-329.347353	6237.467003	-1758.545944
214.28	-0.001238	-0.000406	10.505065	-330.458245	6263.011651	-1758.572375
214.79	-0.001220	-0.000405	10.505067	-331.114113	6278.156005	-1758.528025
215.30	-0.001175	-0.000451	10.505069	-330.863604	6272.439518	-1758.480174
215.81	-0.001154	-0.000489	10.505070	-330.434696	6262.576520	-1758.470331
216.32	-0.001114	-0.000563	10.505068	-329.338703	6237.302385	-1758.513019
216.83	-0.001110	-0.000608	10.505067	-328.319623	6213.834480	-1758.521648
217.34	-0.001087	-0.000653	10.505071	-327.120859	6186.332477	-1758.432809
217.85	-0.001099	-0.000637	10.505068	-326.344904	6168.396042	-1758.503608
218.36	-0.001086	-0.000607	10.505064	-325.795448	6155.647890	-1758.598851
218.87	-0.001106	-0.000555	10.505065	-325.300424	6144.286606	-1758.566427
219.38	-0.001103	-0.000528	10.505069	-324.270138	6120.668857	-1758.471918
219.89	-0.001123	-0.000498	10.505065	-323.109168	6093.842083	-1758.568862
220.40	-0.001126	-0.000509	10.505065	-321.053274	6046.508001	-1758.576593
220.91	-0.001137	-0.000523	10.505065	-319.180673	6003.401836	-1758.576148
221.42	-0.001136	-0.000564	10.505067	-317.062260	5954.678450	-1758.536318
221.93	-0.001144	-0.000594	10.505067	-316.556419	5943.052963	-1758.518394
222.44	-0.001125	-0.000637	10.505064	-316.496950	5941.617550	-1758.581782
222.95	-0.001123	-0.000637	10.505066	-318.176506	5980.321902	-1758.542146
223.46	-0.001102	-0.000644	10.505065	-320.086164	6024.253530	-1758.568910
223.97	-0.001095	-0.000630	10.505063	-321.978416	6067.774084	-1758.605564
224.48	-0.001074	-0.000646	10.505067	-323.003928	6091.465895	-1758.524613
224.99	-0.001069	-0.000641	10.505066	-324.044087	6115.385118	-1758.548332
225.50	-0.001044	-0.000661	10.505063	-324.327445	6121.830461	-1758.622240
226.01	-0.001046	-0.000673	10.505062	-324.256976	6120.184764	-1758.644666
226.52	-0.001027	-0.000697	10.505062	-323.907390	6112.139036	-1758.643116
227.03	-0.001034	-0.000693	10.505061	-323.524647	6103.321097	-1758.650109
227.54	-0.001029	-0.000701	10.505066	-322.885801	6088.724546	-1758.545685
228.05	-0.001032	-0.000666	10.505096	-322.651238	6084.007928	-1757.894225
228.56	-0.001035	-0.000641	10.505087	-322.375534	6077.451310	-1758.094564
229.07	-0.001043	-0.000581	10.505070	-322.597455	6082.167866	-1758.468480
229.58	-0.001037	-0.000550	10.505066	-322.384741	6077.192640	-1758.543481
230.09	-0.001052	-0.000508	10.505068	-322.428831	6078.253422	-1758.499736
230.60	-0.001044	-0.000488	10.505071	-322.193567	6072.912054	-1758.428846
231.11	-0.001049	-0.000445	10.505067	-322.887853	6088.792468	-1758.525958
231.62	-0.001036	-0.000427	10.505064	-323.455878	6101.794465	-1758.596309
232.14	-0.001040	-0.000396	10.505063	-324.526220	6126.413414	-1758.615347
232.65	-0.001024	-0.000402	10.505064	-324.833768	6133.516678	-1758.592828
233.16	-0.001026	-0.000396	10.505064	-325.496569	6148.765700	-1758.600856
233.67	-0.001011	-0.000428	10.505066	-325.238636	6142.874700	-1758.556483
234.18	-0.001011	-0.000430	10.505073	-325.710767	6153.908808	-1758.398302
234.69	-0.000996	-0.000456	10.505075	-325.600856	6151.425770	-1758.353397
235.20	-0.001001	-0.000458	10.505071	-325.939176	6159.116030	-1758.446648
235.71	-0.000989	-0.000476	10.505065	-325.797871	6155.741550	-1758.562717
236.22	-0.000988	-0.000456	10.505064	-326.340956	6168.201051	-1758.602906
236.73	-0.000978	-0.000451	10.505065	-326.503430	6171.966752	-1758.578496
237.24	-0.000974	-0.000426	10.505068	-326.886434	6180.866867	-1758.498846
237.75	-0.000960	-0.000432	10.505073	-326.503008	6172.161456	-1758.383500
238.26	-0.000971	-0.000424	10.505065	-326.242662	6165.963422	-1758.578994
238.77	-0.000957	-0.000441	10.505064	-325.245279	6142.988390	-1758.593898
239.28	-0.000962	-0.000429	10.505060	-324.922118	6135.466867	-1758.672568
239.79	-0.000956	-0.000438	10.505059	-324.103413	6116.600314	-1758.691872
240.30	-0.000956	-0.000409	10.505061	-324.284324	6120.794785	-1758.663304
240.81	-0.000947	-0.000412	10.505061	-323.910795	6112.204970	-1758.654992
241.32	-0.000950	-0.000374	10.505062	-324.798744	6132.665072	-1758.636100
241.83	-0.000934	-0.000361	10.505063	-325.231290	6142.646260	-1758.613079
242.34	-0.000943	-0.000331	10.505063	-326.224107	6165.501090	-1758.612572
242.85	-0.000925	-0.000331	10.505064	-326.489947	6171.645658	-1758.588710
243.36	-0.000932	-0.000317	10.505065	-327.124550	6186.274584	-1758.569077
243.87	-0.000914	-0.000329	10.505063	-327.085150	6185.312319	-1758.621812
244.38	-0.000918	-0.000314	10.505061	-327.782976	6201.341073	-1758.655177
244.89	-0.000908	-0.000323	10.505062	-327.757124	6200.761071	-1758.640753
245.40	-0.000913	-0.000307	10.505064	-328.374604	6215.020372	-1758.597729
245.91	-0.000895	-0.000323	10.505063	-327.990377	6206.156520	-1758.615912
246.42	-0.000897	-0.000322	10.505061	-328.003343	6206.409591	-1758.659238
246.93	-0.000883	-0.000371	10.505061	-326.398921	6169.475409	-1758.660117
247.44	-0.000882	-0.000395	10.505063	-325.402690	6146.585171	-1758.619428
247.95	-0.000868	-0.000445	10.505066	-323.676728	6106.922831	-1758.553883
248.46	-0.000868	-0.000457	10.505065	-322.757058	6085.733899	-1758.571466
248.97	-0.000856	-0.000475	10.505063	-321.868430	6065.226308	-1758.620777
249.48	-0.000859	-0.000472	10.505064	-321.369627	6053.763951	-1758.601781
249.99	-0.000846	-0.000471	10.505061	-321.096290	6047.418892	-1758.652272
250.50	-0.000854	-0.000442	10.505060	-321.579984	6058.530232	-1758.674333
251.01	-0.000838	-0.000449	10.505062	-321.254423	6051.074466	-1758.637562
251.52	-0.000845	-0.000436	10.505065	-321.386421	6054.173757	-1758.579632
252.03	-0.000832	-0.000454	10.505063	-320.898009	6042.892393	-1758.616149
252.54	-0.000834	-0.000425	10.505062	-321.779279	6063.164400	-1758.630011
253.05	-0.000823	-0.000408	10.505061	-322.750189	6085.475537	-1758.667104
253.56	-0.000829	-0.000356	10.505059	-324.684646	6129.969273	-1758.702201
254.07	-0.000820	-0.000333	10.505060	-325.783701	6155.292688	-1758.679737
254.58	-0.000822	-0.000293	10.505064	-327.332610	6191.050263	-1758.582238
255.09	-0.000814	-0.000294	10.505063	-327.418919	6193.011689	-1758.606446
255.60	-0.000816	-0.000280	10.505065	-327.904363	6204.218126	-1758.576220
256.11	-0.000805	-0.000302	10.505063	-327.180821	6187.520928	-1758.615813
256.62	-0.000806	-0.000295	10.505061	-327.244511	6188.940560	-1758.660161
257.13	-0.000790	-0.000316	10.505060	-326.435127	6170.288609	-1758.679439
257.65	-0.000796	-0.000311	10.505061	-326.392227	6169.333854	-1758.648159
258.16	-0.000776	-0.000336	10.505064	-325.356588	6145.558306	-1758.586626
258.67	-0.000786	-0.000329	10.505077	-325.385787	6146.523734	-1758.306879
259.18	-0.000774	-0.000353	10.505088	-324.356587	6123.088573	-1758.062033
259.69	-0.000783	-0.000363	10.505103	-323.646185	6107.086444	-1757.727128
260.20	-0.000771	-0.000401	10.505072	-322.153282	6071.992766	-1758.421164
260.71	-0.000773	-0.000416	10.505078	-321.221476	6050.679164	-1758.291178
261.22	-0.000764	-0.000466	10.505080	-319.295071	6006.378408	-1758.248794
261.73	-0.000768	-0.000492	10.505072	-318.139412	5979.590232	-1758.425554
262.24	-0.000753	-0.000543	10.505070	-316.111104	5932.869713	-1758.453770
262.75	-0.000757	-0.000553	10.505077	-315.775187	5925.287245	-1758.310455
263.26	-0.000743	-0.000578	10.505076	-314.963802	5906.593151	-1758.325995
263.77	-0.000750	-0.000544	10.505068	-316.190932	5934.648054	-1758.510312
264.28	-0.000737	-0.000527	10.505069	-317.198659	5957.878339	-1758.479049
264.79	-0.000746	-0.000466	10.505067	-319.475329	6010.226840	-1758.535960
265.30	-0.000743	-0.000444	10.505066	-320.430510	6032.191518	-1758.558166
265.81	-0.000755	-0.000407	10.505066	-321.716782	6061.818865	-1758.541180
266.32	-0.000745	-0.000397	10.505067	-322.224354	6073.507497	-1758.536873
266.83	-0.000758	-0.000382	10.505068	-322.565184	6081.398185	-1758.494049
267.34	-0.000750	-0.000389	10.505073	-322.310709	6075.649315	-1758.390031
267.85	-0.000751	-0.000381	10.505074	-322.403595	6077.795569	-1758.382338
268.36	-0.000735	-0.000406	10.505073	-321.353266	6053.610933	-1758.388462
268.87	-0.000738	-0.000423	10.505073	-320.374254	6031.058500	-1758.403658
269.38	-0.000727	-0.000470	10.505081	-318.499082	5988.095938	-1758.209755
269.89	-0.000730	-0.000489	10.505073	-317.454815	5963.869976	-1758.388424
270.40	-0.000722	-0.000537	10.505064	-315.372290	5915.728473	-1758.581579
270.91	-0.000730	-0.000550	10.505063	-314.587102	5897.609184	-1758.624054
271.42	-0.000715	-0.000576	10.505062	-313.372694	5869.631300	-1758.645650
271.93	-0.000718	-0.000558	10.505062	-313.783705	5879.096987	-1758.641477
272.44	-0.000710	-0.000539	10.505064	-314.893090	5904.676668	-1758.601396
272.95	-0.000716	-0.000474	10.505064	-317.425064	5962.968503	-1758.595054
273.46	-0.000706	-0.000426	10.505063	-319.633578	6013.781196	-1758.620371
273.97	-0.000712	-0.000348	10.505062	-322.961191	6090.371210	-1758.630389
274.48	-0.000706	-0.000312	10.505062	-324.537279	6126.654170	-1758.628517
274.99	-0.000712	-0.000260	10.505063	-326.729762	6177.132049	-1758.621210
275.50	-0.000710	-0.000233	10.505064	-327.954798	6205.361144	-1758.593361
276.01	-0.000717	-0.000199	10.505064	-329.308598	6236.516688	-1758.601446
276.52	-0.000711	-0.000203	10.505061	-329.239868	6234.886000	-1758.647750
277.03	-0.000717	-0.000196	10.505062	-329.368893	6237.863026	-1758.641158
277.54	-0.000712	-0.000236	10.505060	-327.607614	6197.282712	-1758.675762
278.05	-0.000716	-0.000262	10.505061	-326.240145	6165.832155	-1758.648939
278.56	-0.000701	-0.000311	10.505064	-324.004843	6114.444139	-1758.584202
279.07	-0.000707	-0.000344	10.505064	-322.328941	6075.846125	-1758.602633
279.58	-0.000689	-0.000392	10.505066	-320.225517	6027.485000	-1758.546369
280.09	-0.000689	-0.000407	10.505062	-319.123907	6002.035330	-1758.633177
280.60	-0.000674	-0.000447	10.505061	-317.321341	5960.520422	-1758.652684
281.11	-0.000670	-0.000455	10.505062	-316.553393	5942.861373	-1758.634710
281.62	-0.000657	-0.000500	10.505061	-314.401738	5893.305014	-1758.659492
282.13	-0.000661	-0.000493	10.505064	-314.336338	5891.865723	-1758.596363
282.64	-0.000654	-0.000504	10.505067	-313.812225	5879.867108	-1758.533117
283.15	-0.000656	-0.000475	10.505069	-314.889830	5904.720789	-1758.487724
283.67	-0.000647	-0.000443	10.505072	-316.538665	5942.742824	-1758.424382
284.18	-0.000655	-0.000383	10.505068	-319.231766	6004.659166	-1758.498700
284.69	-0.000650	-0.000341	10.505063	-321.494185	6056.627120	-1758.605688
285.20	-0.000653	-0.000283	10.505061	-324.067570	6115.810450	-1758.658258
285.71	-0.000645	-0.000255	10.505062	-325.575393	6150.535266	-1758.643730
286.22	-0.000654	-0.000212	10.505060	-327.541721	6195.765818	-1758.675811
286.73	-0.000649	-0.000200	10.505060	-328.184200	6210.548008	-1758.682940
287.24	-0.000658	-0.000192	10.505064	-328.457180	6216.934852	-1758.584746
287.75	-0.000652	-0.000211	10.505061	-327.557236	6196.151611	-1758.648499
288.26	-0.000659	-0.000234	10.505060	-326.264114	6166.343115	-1758.687870
288.77	-0.000650	-0.000282	10.505059	-323.816254	6109.984671	-1758.696968
289.28	-0.000646	-0.000313	10.505059	-322.098704	6070.440289	-1758.703609
289.79	-0.000631	-0.000363	10.505062	-319.531422	6011.403227	-1758.645541
290.30	-0.000633	-0.000365	10.505061	-319.195698	6003.664517	-1758.655497
290.81	-0.000620	-0.000388	10.505062	-317.972481	5975.518010	-1758.644506
291.32	-0.000623	-0.000370	10.505063	-318.534496	5988.479390	-1758.621637
291.83	-0.000609	-0.000362	10.505066	-319.150423	6002.734044	-1758.548920
292.34	-0.000613	-0.000325	10.505073	-320.633405	6037.036479	-1758.391807
292.85	-0.000602	-0.000317	10.505062	-321.271991	6051.483953	-1758.632734
293.36	-0.000608	-0.000293	10.505059	-322.335096	6075.878429	-1758.706983
293.87	-0.000598	-0.000302	10.505062	-322.029258	6068.923354	-1758.625698
294.38	-0.000604	-0.000277	10.505062	-323.151984	6094.762390	-1758.631166
294.89	-0.000591	-0.000276	10.505058	-323.248088	6096.887567	-1758.714261
295.40	-0.000601	-0.000240	10.505056	-325.053011	6138.387393	-1758.760872
295.91	-0.000593	-0.000224	10.505055	-326.010223	6160.400590	-1758.781383
296.42	-0.000605	-0.000197	10.505056	-327.253422	6189.028280	-1758.772155
296.93	-0.000594	-0.000199	10.505056	-327.189730	6187.563756	-1758.770599
297.44	-0.000597	-0.000186	10.505057	-327.733020	6200.087834	-1758.753681
297.95	-0.000587	-0.000218	10.505059	-326.061212	6161.653139	-1758.706212
298.46	-0.000592	-0.000238	10.505059	-324.661935	6129.435648	-1758.712519
298.97	-0.000589	-0.000295	10.505063	-321.663885	6060.514497	-1758.623882
299.48	-0.000590	-0.000332	10.505067	-319.481686	6010.386822	-1758.522945
299.99	-0.000584	-0.000374	10.505072	-317.401437	5962.619132	-1758.409512
300.50	-0.000591	-0.000376	10.505057	-317.010716	5953.264500	-1758.753269
301.01	-0.000590	-0.000400	10.505054	-316.036599	5930.774811	-1758.816084
301.52	-0.000590	-0.000381	10.505055	-316.860094	5949.763105	-1758.785807
302.03	-0.000584	-0.000386	10.505059	-316.667440	5945.419593	-1758.698706
302.54	-0.000586	-0.000350	10.505056	-318.218875	5981.069855	-1758.759045
303.05	-0.000577	-0.000331	10.505056	-319.386563	6007.948636	-1758.759992
303.56	-0.000581	-0.000278	10.505052	-322.142594	6071.301368	-1758.845985
304.07	-0.000567	-0.000253	10.505051	-323.695644	6107.024011	-1758.872739
304.58	-0.000578	-0.000211	10.505053	-325.984454	6159.743640	-1758.842199
305.09	-0.000572	-0.000205	10.505056	-326.450434	6170.558919	-1758.757712
305.60	-0.000573	-0.000181	10.505053	-327.621901	6197.455519	-1758.824646
306.11	-0.000564	-0.000189	10.505052	-327.227086	6188.340699	-1758.849746
306.62	-0.000563	-0.000183	10.505052	-327.454023	6193.547741	-1758.865940
307.13	-0.000555	-0.000198	10.505052	-326.649598	6175.042012	-1758.854623
307.64	-0.000557	-0.000186	10.505053	-327.202792	6187.809435	-1758.823068
308.15	-0.000548	-0.000190	10.505054	-327.039717	6184.061596	-1758.817258
308.66	-0.000554	-0.000176	10.505056	-327.753943	6200.546142	-1758.775942
309.18	-0.000544	-0.000181	10.505052	-327.586216	6196.592486	-1758.864313
309.69	-0.000540	-0.000168	10.505052	-328.302574	6213.087077	-1758.860229
310.20	-0.000537	-0.000182	10.505057	-327.574941	6196.450201	-1758.752443
310.71	-0.000539	-0.000185	10.505054	-327.329508	6190.733296	-1758.816484
311.22	-0.000534	-0.000211	10.505051	-325.882384	6157.365789	-1758.869147
311.73	-0.000544	-0.000237	10.505051	-324.246565	6119.696011	-1758.882296
312.24	-0.000540	-0.000278	10.505051	-321.927959	6066.321026	-1758.883681
312.75	-0.000548	-0.000300	10.505051	-320.228786	6027.209881	-1758.880595
313.26	-0.000541	-0.000335	10.505052	-318.320970	5983.327736	-1758.847095
313.77	-0.000545	-0.000341	10.505054	-317.404743	5962.277767	-1758.807720
314.28	-0.000543	-0.000358	10.505055	-316.399720	5939.152322	-1758.798334
314.79	-0.000550	-0.000320	10.505052	-318.272933	5982.221000	-1758.847994
315.30	-0.000541	-0.000294	10.505050	-319.785306	6016.990388	-1758.890832
315.81	-0.000544	-0.000231	10.505052	-323.475654	6101.968533	-1758.864521
316.32	-0.000534	-0.000210	10.505052	-324.890161	6134.541366	-1758.853677
316.83	-0.000536	-0.000191	10.505051	-325.986335	6159.758458	-1758.869376
317.34	-0.000527	-0.000212	10.505052	-324.640895	6128.789981	-1758.866428
317.85	-0.000524	-0.000228	10.505053	-323.422529	6100.784808	-1758.827118
318.36	-0.000515	-0.000264	10.505052	-321.280018	6051.438841	-1758.852012
318.87	-0.000511	-0.000257	10.505050	-321.588816	6058.507409	-1758.890043
319.38	-0.000504	-0.000258	10.505051	-321.612506	6059.058754	-1758.884303
319.89	-0.000504	-0.000223	10.505053	-323.738095	6108.036188	-1758.839378
320.40	-0.000493	-0.000202	10.505051	-325.276990	6143.428903	-1758.870028
320.91	-0.000497	-0.000157	10.505051	-328.101903	6208.439986	-1758.886660
321.42	-0.000490	-0.000135	10.505051	-329.635975	6243.773357	-1758.867998
321.93	-0.000496	-0.000101	10.505052	-331.780973	6293.163117	-1758.855948
322.44	-0.000492	-0.000114	10.505050	-331.027396	6275.779033	-1758.891239
322.95	-0.000496	-0.000116	10.505051	-330.805293	6270.674320	-1758.883595
323.46	-0.000488	-0.000152	10.505051	-328.343501	6214.004957	-1758.883344
323.97	-0.000497	-0.000183	10.505053	-326.062258	6161.550220	-1758.827352
324.48	-0.000483	-0.000237	10.505072	-322.501235	6080.003856	-1758.419879
324.99	-0.000487	-0.000284	10.505072	-318.959155	5998.481641	-1758.405325
325.50	-0.000478	-0.000369	10.505067	-313.316597	5868.464867	-1758.526498
326.01	-0.000485	-0.000421	10.505095	-309.132335	5772.781703	-1757.918741
326.52	-0.000483	-0.000494	10.505073	-304.326865	5661.663514	-1758.393702
327.03	-0.000485	-0.000532	10.505067	-301.006325	5585.083181	-1758.529767
327.54	-0.000474	-0.000571	10.505069	-298.702819	5532.113573	-1758.476066
328.05	-0.000479	-0.000571	10.505111	-298.010837	5517.140540	-1757.563985
328.56	-0.000469	-0.000576	10.505101	-298.116781	5519.346097	-1757.786463
329.07	-0.000471	-0.000542	10.505092	-299.628847	5553.956127	-1757.974575
329.58	-0.000461	-0.000529	10.505108	-301.236107	5591.323718	-1757.622589
330.09	-0.000460	-0.000479	10.505090	-304.263364	5660.601527	-1758.012360
330.60	-0.000448	-0.000447	10.505090	-307.179482	5727.721028	-1758.020494
331.11	-0.000455	-0.000403	10.505088	-309.701992	5785.738803	-1758.067751
331.62	-0.000455	-0.000393	10.505078	-310.560182	5805.260967	-1758.290096
332.13	-0.000458	-0.000386	10.505070	-310.607126	5806.170488	-1758.453317
332.64	-0.000454	-0.000414	10.505068	-308.850123	5765.664645	-1758.510766
333.15	-0.000460	-0.000428	10.505069	-307.648349	5738.040029	-1758.472793
333.66	-0.000455	-0.000465	10.505070	-305.101407	5679.428377	-1758.455554
334.17	-0.000456	-0.000472	10.505067	-304.249313	5659.735143	-1758.530261
334.69	-0.000455	-0.000497	10.505066	-302.835587	5627.161940	-1758.558608
335.20	-0.000456	-0.000481	10.505065	-303.873282	5651.043962	-1758.563720
335.71	-0.000446	-0.000486	10.505068	-303.584281	5644.459230	-1758.498878
336.22	-0.000448	-0.000467	10.505069	-304.593113	5667.704752	-1758.477372
336.73	-0.000437	-0.000474	10.505066	-304.211456	5658.855898	-1758.537696
337.24	-0.000437	-0.000451	10.505068	-305.388790	5685.985619	-1758.511086
