Length [m]	OTDR [V]	Brillouin intensity [V]	Fitted Frequency [GHz]	Temperature [”]	Compensated Strain [レュ]	Uncompensated Strain [レュ]
0.51	0.007206	0.073845	10.465932	-115.810263	419.352065	-2619.506498
1.02	0.007177	0.077870	10.446332	-101.020889	-373.128228	-3050.703985
1.53	0.007185	0.081206	10.439485	-77.507881	-1072.305281	-3201.340533
2.04	0.007174	0.084055	10.437294	-55.390365	-1631.972428	-3249.540881
2.55	0.007171	0.086573	10.437000	-39.707591	-1999.744695	-3255.989436
3.06	0.007143	0.088761	10.437189	-22.638427	-2388.315763	-3251.834949
3.57	0.007136	0.090633	10.436969	-11.210361	-2656.474120	-3256.688602
4.08	0.007118	0.092151	10.436860	-1.471129	-2883.184522	-3259.089209
4.59	0.007123	0.093360	10.437523	11.960957	-3177.081434	-3244.489582
5.10	0.007129	0.094263	10.438142	24.532441	-3452.199456	-3230.874263
5.61	0.007144	0.094938	10.437781	30.430364	-3596.296406	-3238.819140
6.12	0.007150	0.095407	10.437047	31.174250	-3630.348984	-3254.967377
6.63	0.007159	0.095756	10.435965	28.503962	-3593.841837	-3278.778744
7.14	0.007155	0.095981	10.435781	24.696221	-3510.420954	-3282.815678
7.65	0.007157	0.096139	10.436437	23.594825	-3469.943627	-3268.389225
8.16	0.007156	0.096213	10.436558	28.358740	-3576.819700	-3265.730093
8.67	0.007165	0.096250	10.436126	32.870240	-3690.621671	-3275.220306
9.18	0.007171	0.096221	10.435290	37.545153	-3817.526598	-3293.621152
9.69	0.007171	0.096163	10.435057	38.745593	-3850.525357	-3298.738889
10.20	0.007161	0.096052	10.435809	38.138652	-3819.211452	-3282.195956
10.71	0.007147	0.095940	10.436114	36.717830	-3779.465592	-3275.481404
11.22	0.007129	0.095822	10.434748	37.496093	-3828.889207	-3305.537286
11.73	0.007127	0.095748	10.433980	39.904101	-3902.047169	-3322.446631
12.24	0.007132	0.095703	10.433958	43.366511	-3982.252873	-3322.925703
12.75	0.007143	0.095704	10.434015	44.739445	-4012.534217	-3321.663555
13.26	0.007149	0.095720	10.434461	43.707111	-3978.496488	-3311.863370
13.77	0.007143	0.095745	10.435708	40.681215	-3880.087325	-3284.434720
14.28	0.007134	0.095758	10.436842	38.581039	-3805.580425	-3259.479056
14.79	0.007123	0.095785	10.436874	36.634155	-3760.020099	-3258.769622
15.30	0.007110	0.095817	10.435786	36.160506	-3774.221786	-3282.717336
15.81	0.007091	0.095872	10.435234	36.039904	-3784.174443	-3294.859482
16.32	0.007054	0.095905	10.435300	35.251040	-3764.495408	-3293.409857
16.83	0.006994	0.095946	10.434990	34.158841	-3746.482747	-3300.210616
17.34	0.006903	0.095926	10.435594	33.822379	-3724.816391	-3286.931193
17.85	0.006794	0.095898	10.435821	34.199058	-3728.245966	-3281.931369
18.36	0.006685	0.095831	10.435088	35.024348	-3764.147946	-3298.056250
18.87	0.006591	0.095771	10.435257	36.036081	-3783.539537	-3294.337773
19.38	0.006511	0.095680	10.436706	36.315008	-3756.561132	-3262.478116
19.89	0.006456	0.095611	10.437583	38.305376	-3782.140665	-3243.172920
20.40	0.006412	0.095519	10.437703	36.854935	-3745.981789	-3240.530401
20.91	0.006381	0.095449	10.437909	38.190113	-3771.962306	-3235.994736
21.42	0.006355	0.095369	10.438669	39.674506	-3788.614304	-3219.284025
21.93	0.006328	0.095326	10.438906	39.209121	-3772.437198	-3214.071781
22.44	0.006306	0.095298	10.438630	39.803034	-3792.466373	-3220.136245
22.95	0.006300	0.095311	10.438459	37.536736	-3744.234959	-3223.892719
23.46	0.006290	0.095345	10.438503	37.605619	-3744.826003	-3222.943928
23.97	0.006298	0.095405	10.438577	37.305280	-3736.195509	-3221.306291
24.48	0.006296	0.095453	10.438502	38.409714	-3763.342889	-3222.950524
24.99	0.006303	0.095498	10.438822	37.887217	-3743.932067	-3215.907724
25.50	0.006298	0.095497	10.438888	39.269179	-3774.221144	-3214.454705
26.02	0.006295	0.095491	10.438950	38.224309	-3748.737607	-3213.089700
26.53	0.006283	0.095438	10.438914	37.804859	-3739.914903	-3213.884181
27.04	0.006289	0.095389	10.438824	37.644463	-3738.302875	-3215.868537
27.55	0.006283	0.095308	10.438646	37.189504	-3731.941108	-3219.790267
28.06	0.006289	0.095261	10.438749	38.501672	-3759.759205	-3217.512758
28.57	0.006286	0.095204	10.438825	38.692032	-3762.388812	-3215.841120
29.08	0.006294	0.095183	10.438653	39.367093	-3781.903613	-3219.633003
29.59	0.006293	0.095169	10.438166	38.308977	-3768.786797	-3230.355527
30.10	0.006290	0.095179	10.437648	40.854205	-3839.320581	-3241.748495
30.61	0.006282	0.095172	10.437610	36.502485	-3740.006400	-3242.569748
31.12	0.006283	0.095185	10.438038	42.551575	-3869.388307	-3233.158436
31.63	0.006293	0.095136	10.439004	36.174058	-3700.301061	-3211.906392
32.14	0.006294	0.095145	10.440266	41.670528	-3797.718834	-3184.139099
32.65	0.006296	0.095039	10.440803	36.225390	-3659.990652	-3172.326920
33.16	0.006298	0.095039	10.441680	40.067797	-3728.220330	-3153.037807
33.67	0.006297	0.094906	10.442372	35.251705	-3601.408744	-3137.826077
34.18	0.006295	0.094933	10.442910	38.993771	-3675.125726	-3125.974655
34.69	0.006297	0.094831	10.443283	36.351505	-3605.709302	-3117.778355
35.20	0.006301	0.094894	10.443061	38.090693	-3650.855926	-3122.653872
35.71	0.006297	0.094838	10.442959	37.456026	-3638.609337	-3124.908174
36.22	0.006304	0.094896	10.443133	38.278225	-3653.522155	-3121.079273
36.73	0.006296	0.094821	10.443311	38.119433	-3645.755947	-3117.157898
37.24	0.006294	0.094819	10.443932	39.585436	-3665.190267	-3103.505061
37.75	0.006294	0.094722	10.443871	39.595405	-3666.808769	-3104.830058
38.26	0.006291	0.094691	10.443433	40.391077	-3695.225982	-3114.465545
38.77	0.006294	0.094610	10.443618	39.850390	-3678.513516	-3110.396151
39.28	0.006302	0.094601	10.442923	39.453142	-3685.410059	-3125.697801
39.79	0.006303	0.094568	10.442809	38.527528	-3666.716883	-3128.191444
40.30	0.006306	0.094587	10.443458	38.296017	-3646.431093	-3113.924376
40.81	0.006300	0.094565	10.443571	37.757214	-3631.416914	-3111.433620
41.32	0.006298	0.094568	10.444358	37.976197	-3618.305894	-3094.118405
41.83	0.006286	0.094537	10.444682	37.719370	-3604.924079	-3086.992963
42.34	0.006290	0.094527	10.445193	37.749004	-3593.832479	-3075.761921
42.85	0.006288	0.094507	10.445693	37.177964	-3569.155486	-3064.761622
43.36	0.006292	0.094511	10.444089	36.924109	-3600.302138	-3100.046874
43.87	0.006285	0.094490	10.443368	36.818683	-3614.500490	-3115.905753
44.38	0.006287	0.094488	10.444375	37.358583	-3603.711079	-3093.758241
44.89	0.006285	0.094462	10.445114	37.980278	-3600.974926	-3077.496678
45.40	0.006285	0.094463	10.446326	38.922541	-3594.698172	-3050.818513
45.91	0.006285	0.094446	10.446628	38.938641	-3588.115596	-3044.185823
46.42	0.006295	0.094453	10.445772	38.742392	-3603.342503	-3063.020192
46.93	0.006292	0.094442	10.445678	38.128003	-3591.367002	-3065.087814
47.44	0.006293	0.094446	10.446972	37.814723	-3554.309215	-3036.617390
47.95	0.006283	0.094435	10.447317	38.098221	-3552.869568	-3029.018888
48.46	0.006279	0.094433	10.446524	38.529550	-3581.102357	-3046.478927
48.97	0.006266	0.094399	10.448625	38.966319	-3542.691310	-3000.247596
49.48	0.006264	0.094360	10.467658	39.527394	-3116.642084	-2581.516677
49.99	0.006269	0.094213	10.518983	39.919924	-1941.962696	-1452.364643
50.50	0.006272	0.093931	10.554636	40.789649	-1139.724789	-668.007911
51.01	0.006268	0.093333	10.563193	41.595627	-960.937838	-479.763989
51.53	0.006277	0.092366	10.565981	42.643964	-920.749553	-418.408212
52.04	0.006277	0.090997	10.567767	42.982103	-887.361370	-379.133999
52.55	0.006282	0.089370	10.569167	42.287852	-839.087038	-348.329620
53.06	0.006287	0.087632	10.569491	40.196125	-783.459558	-341.197625
53.57	0.006284	0.085991	10.568981	37.693975	-737.632817	-352.426898
54.08	0.006283	0.084553	10.569250	34.557711	-659.216284	-346.492841
54.59	0.006279	0.083398	10.569814	31.987468	-587.044436	-334.086602
55.10	0.006275	0.082503	10.569737	29.762364	-537.596803	-335.778351
55.61	0.006271	0.081860	10.570265	28.417607	-494.472734	-324.171028
56.12	0.006268	0.081385	10.570234	27.848754	-482.102188	-324.861894
56.63	0.006267	0.081067	10.570130	27.663521	-480.236931	-327.150056
57.14	0.006261	0.080806	10.570390	26.822505	-454.867087	-321.417157
57.65	0.006257	0.080628	10.570133	26.644621	-456.693987	-327.065924
58.16	0.006258	0.080446	10.570394	25.317610	-420.129918	-321.326528
58.67	0.006261	0.080306	10.570523	24.831488	-405.965436	-318.489494
59.18	0.006265	0.080171	10.570598	23.792471	-380.326742	-316.847947
59.69	0.006263	0.080087	10.570902	23.718593	-371.606553	-310.151957
60.20	0.006259	0.080015	10.571538	23.539394	-352.812754	-296.159430
60.71	0.006260	0.079990	10.571565	24.145006	-366.136350	-295.570484
61.22	0.006254	0.079962	10.571451	23.671462	-357.855242	-298.069451
61.73	0.006255	0.079967	10.571449	24.017769	-365.881844	-298.121651
62.24	0.006251	0.079947	10.570978	23.601837	-367.159462	-308.473662
62.75	0.006254	0.079946	10.571051	23.791180	-369.839474	-306.872430
63.26	0.006253	0.079931	10.571623	23.214777	-343.382157	-294.291661
63.77	0.006261	0.079923	10.571750	23.245282	-341.164136	-291.506025
64.28	0.006288	0.079889	10.571639	23.270502	-344.301231	-293.944723
64.79	0.006389	0.079881	10.571356	23.724325	-361.274824	-300.170603
65.30	0.006663	0.079840	10.571341	23.448381	-355.274020	-300.505756
65.81	0.007251	0.079826	10.571280	22.849700	-342.902269	-301.850443
66.32	0.008247	0.079775	10.571396	22.557413	-333.493335	-299.293431
66.83	0.009587	0.079758	10.571868	22.350641	-317.849823	-288.911409
67.34	0.010962	0.079731	10.572132	22.090881	-305.764264	-283.086902
67.85	0.011987	0.079727	10.571971	22.135017	-310.498895	-286.634117
68.36	0.012385	0.079702	10.571780	22.129458	-314.769344	-290.829791
68.87	0.012174	0.079705	10.571650	22.021682	-315.288969	-293.692081
69.38	0.011482	0.079683	10.571924	21.714694	-301.907474	-287.668404
69.89	0.010583	0.079699	10.572069	22.005217	-305.263221	-284.490019
70.40	0.009660	0.079715	10.572001	21.684673	-299.455101	-285.988305
70.91	0.008869	0.079747	10.572108	22.275016	-310.561683	-283.619841
71.42	0.008243	0.079760	10.571820	22.438111	-320.964323	-289.961635
71.93	0.007799	0.079789	10.572079	22.578285	-318.208243	-284.254575
72.44	0.007472	0.079789	10.572389	22.780337	-315.716229	-277.440672
72.95	0.007239	0.079817	10.572008	22.707250	-322.820120	-285.821992
73.46	0.007064	0.079813	10.572096	22.235132	-309.926186	-283.889440
73.97	0.006939	0.079841	10.572359	22.308374	-305.542333	-278.099366
74.48	0.006835	0.079839	10.572192	22.152298	-305.811650	-281.783481
74.99	0.006761	0.079869	10.571975	22.623096	-321.651282	-286.554934
75.50	0.006702	0.079865	10.572005	22.734667	-323.523671	-285.891063
76.01	0.006661	0.079889	10.572060	23.498459	-339.835305	-284.679049
76.52	0.006628	0.079875	10.572062	23.190056	-332.680780	-284.626391
77.03	0.006616	0.079873	10.572496	23.295811	-325.109807	-275.082180
77.55	0.006599	0.079831	10.572700	22.910286	-311.542600	-270.605925
78.06	0.006591	0.079808	10.572923	23.204824	-313.173136	-265.693667
78.57	0.006579	0.079772	10.573306	22.904534	-297.438256	-257.278027
79.08	0.006572	0.079763	10.573362	22.968981	-297.623393	-256.039470
79.59	0.006563	0.079741	10.573231	22.901866	-299.094832	-258.916816
80.10	0.006556	0.079730	10.573120	22.869318	-300.897585	-261.351193
80.61	0.006553	0.079699	10.573093	22.132482	-284.572859	-261.958818
81.12	0.006562	0.079681	10.573291	22.208726	-281.762554	-257.603830
81.63	0.006569	0.079636	10.573740	21.978475	-266.095821	-247.715254
82.14	0.006584	0.079619	10.573621	22.435716	-279.368038	-250.335322
82.65	0.006596	0.079586	10.573036	22.557672	-295.661606	-263.199852
83.16	0.006600	0.079577	10.573128	23.239032	-309.236580	-261.187416
83.67	0.006602	0.079558	10.573533	23.262626	-300.434181	-252.272653
84.18	0.006602	0.079567	10.573511	23.021044	-295.391516	-252.767239
84.69	0.006591	0.079569	10.573291	22.872655	-297.030577	-257.589147
85.20	0.006597	0.079597	10.573241	23.194173	-305.605154	-258.708406
85.71	0.006594	0.079609	10.573352	22.768236	-293.219337	-256.246483
86.22	0.006608	0.079635	10.573592	22.863815	-289.902600	-250.983858
86.73	0.006576	0.079600	10.573680	22.419637	-277.639746	-249.039774
87.24	0.006547	0.079591	10.573359	22.121763	-278.180405	-256.096382
87.75	0.006470	0.079530	10.573006	22.004632	-283.628337	-263.865235
88.26	0.006405	0.079481	10.572795	21.848119	-284.901091	-268.516125
88.77	0.006340	0.079433	10.573500	21.869146	-269.123636	-253.004197
89.28	0.006387	0.079475	10.573940	22.259923	-267.971427	-243.324206
89.79	0.006410	0.079616	10.573772	23.126711	-291.798707	-247.019730
90.30	0.006426	0.079776	10.573749	24.025366	-313.004133	-247.514521
90.81	0.006436	0.079871	10.573976	24.527831	-319.337716	-242.522749
91.32	0.006493	0.079864	10.573771	24.828728	-331.005982	-247.045901
91.83	0.006501	0.079826	10.574154	24.879029	-323.332067	-238.621180
92.34	0.006501	0.079766	10.574310	24.566990	-312.531416	-235.170307
92.85	0.006501	0.079676	10.573941	23.970238	-307.314935	-243.298105
93.36	0.006510	0.079615	10.573646	23.485159	-302.949528	-249.785556
93.87	0.006513	0.079558	10.573277	23.345297	-308.253699	-257.916404
94.38	0.006518	0.079558	10.573766	23.560775	-301.916954	-247.140165
94.89	0.006524	0.079526	10.574324	23.360879	-284.459674	-234.877013
95.40	0.006533	0.079515	10.574983	23.631318	-275.489353	-220.381721
95.91	0.006533	0.079493	10.574681	23.490604	-279.216964	-227.027378
96.42	0.006533	0.079524	10.573883	23.861484	-306.151290	-244.576177
96.93	0.006533	0.079532	10.573730	23.725051	-306.537880	-247.940830
97.44	0.006533	0.079531	10.574049	23.789531	-300.672335	-240.929762
97.95	0.006533	0.079457	10.573070	23.010789	-305.322858	-262.465974
98.46	0.006536	0.079376	10.569314	21.085834	-347.631747	-345.093896
98.97	0.006536	0.079270	10.563415	14.929832	-341.971829	-474.871863
99.48	0.006536	0.079246	10.557594	0.268504	-138.710648	-602.921762
99.99	0.006536	0.079304	10.550663	-26.951429	328.014527	-755.421023
100.50	0.006536	0.079489	10.539830	-63.900475	928.726819	-993.746687
101.01	0.006533	0.079731	10.530252	-101.542624	1574.346705	-1204.454299
101.52	0.006533	0.080032	10.526187	-130.451827	2146.063623	-1293.895355
102.03	0.006533	0.080320	10.525007	-147.549905	2512.452084	-1319.844864
102.54	0.006533	0.080625	10.525545	-152.968331	2649.594938	-1308.004458
103.06	0.006531	0.080909	10.526749	-149.098618	2588.286866	-1281.513197
103.57	0.006530	0.081190	10.527928	-136.989419	2336.715401	-1255.587819
104.08	0.006529	0.081419	10.529178	-119.274054	1957.752058	-1228.078814
104.59	0.006529	0.081623	10.531772	-97.744352	1521.972095	-1171.010092
105.10	0.006529	0.081751	10.535850	-75.892088	1112.995294	-1081.290709
105.61	0.006529	0.081862	10.538990	-55.559225	717.345706	-1012.222290
106.12	0.006529	0.081932	10.540362	-39.213242	372.719815	-982.028275
106.63	0.006530	0.082033	10.541533	-25.737721	89.506903	-956.283364
107.14	0.006530	0.082132	10.542514	-15.289850	-128.374547	-934.701288
107.65	0.006529	0.082251	10.542501	-6.811591	-323.825042	-934.972090
108.16	0.006529	0.082326	10.542278	-0.517784	-473.848866	-939.877582
108.67	0.006529	0.082370	10.542232	4.806122	-597.468284	-940.893410
109.18	0.006529	0.082361	10.541994	8.474888	-687.406668	-946.125241
109.69	0.006529	0.082339	10.541426	11.455887	-769.143536	-958.635985
110.20	0.006529	0.082271	10.541509	13.299731	-809.669681	-956.805915
110.71	0.006529	0.082220	10.541920	14.844819	-835.760069	-947.765744
111.22	0.006529	0.082154	10.542067	15.219099	-840.986507	-944.532608
111.73	0.006522	0.082124	10.541874	15.967418	-862.666513	-948.781263
112.24	0.006521	0.082073	10.541900	16.176524	-866.873927	-948.203084
112.75	0.006516	0.082053	10.541780	16.771202	-883.323524	-950.836157
113.26	0.006516	0.082019	10.541452	16.969438	-895.445793	-958.046668
113.77	0.006521	0.082024	10.541610	17.522683	-904.554186	-954.586735
114.28	0.006522	0.082025	10.541789	17.889999	-908.880561	-950.647953
114.79	0.006522	0.082062	10.542163	18.180260	-906.924885	-942.408716
115.30	0.006522	0.082063	10.542743	17.697565	-882.449582	-929.660888
115.81	0.006522	0.082066	10.542448	17.328664	-880.757851	-936.147681
116.32	0.006522	0.082021	10.542789	16.327355	-849.835049	-928.637563
116.83	0.006522	0.081981	10.543327	15.546878	-819.469910	-916.810272
117.34	0.006522	0.081932	10.542952	15.127411	-818.459634	-925.057447
117.85	0.006524	0.081919	10.542155	14.957956	-832.932739	-942.584404
118.36	0.006524	0.081900	10.541507	14.841344	-845.209171	-956.855598
118.87	0.006522	0.081909	10.541644	15.489052	-856.942195	-953.825036
119.38	0.006522	0.081897	10.542156	15.110533	-836.424788	-942.565119
119.89	0.006522	0.081897	10.542247	15.259382	-837.750432	-940.561153
120.40	0.006522	0.081875	10.542291	14.427499	-817.595206	-939.601941
120.91	0.006522	0.081867	10.542058	16.123347	-862.012496	-944.733415
121.42	0.006522	0.081846	10.541577	17.573453	-906.472934	-955.302204
121.93	0.006522	0.081837	10.542352	21.802355	-985.959168	-938.263889
122.44	0.006522	0.081803	10.542972	25.312667	-1052.458701	-924.616699
122.95	0.006520	0.081784	10.542828	28.948875	-1139.485500	-927.786083
123.46	0.006519	0.081748	10.542525	26.098032	-1080.834480	-934.439008
123.97	0.006515	0.081733	10.542295	24.710835	-1054.209375	-939.502061
124.48	0.006515	0.081701	10.542291	23.637181	-1029.598545	-939.601568
124.99	0.006515	0.081693	10.542635	23.054254	-1008.238470	-932.026322
125.50	0.006512	0.081679	10.542718	19.829457	-932.099416	-930.208809
126.01	0.006512	0.081706	10.543311	19.498385	-910.807580	-917.168287
126.52	0.006508	0.081724	10.544266	19.576303	-890.555715	-896.138970
127.03	0.006505	0.081772	10.544467	19.785552	-890.744760	-891.724494
127.54	0.006504	0.081798	10.544267	19.416422	-886.861100	-896.125423
128.05	0.006503	0.081816	10.543978	19.310617	-891.082562	-902.475616
128.56	0.006503	0.081787	10.544164	18.915627	-877.715893	-898.398504
129.08	0.006498	0.081745	10.544527	18.426296	-858.065322	-890.398727
129.59	0.006516	0.081664	10.544087	17.590750	-848.989681	-900.088824
130.10	0.006511	0.081591	10.543653	17.231811	-850.724804	-909.625751
130.61	0.006506	0.081491	10.543636	16.796382	-841.096012	-910.002201
131.12	0.006514	0.081436	10.543843	16.552983	-830.725188	-905.454110
131.63	0.006522	0.081370	10.543619	16.267727	-829.321078	-910.378539
132.14	0.006531	0.081340	10.543865	16.134358	-820.586209	-904.974892
132.65	0.006525	0.081297	10.544911	15.828147	-789.412711	-881.962285
133.16	0.006525	0.081278	10.545125	15.747130	-782.597108	-877.239867
133.67	0.006521	0.081237	10.544689	15.568894	-788.561314	-886.842953
134.18	0.006518	0.081230	10.544628	15.537499	-789.242676	-888.182304
134.69	0.006515	0.081214	10.544958	15.468384	-780.048014	-880.929145
135.20	0.006525	0.081223	10.544761	15.624232	-788.164127	-885.248945
135.71	0.006533	0.081215	10.544174	15.631776	-801.890151	-898.176599
136.22	0.006551	0.081213	10.543765	15.623480	-811.117089	-907.160403
136.73	0.006766	0.081184	10.543760	15.499322	-808.387001	-907.282491
137.24	0.008490	0.081164	10.544001	15.499532	-802.840097	-901.986651
137.75	0.016232	0.081124	10.543602	15.368343	-809.018219	-910.760715
138.26	0.039869	0.081118	10.543710	15.388067	-806.976412	-908.379927
138.77	0.094497	0.081109	10.544100	15.350061	-797.105204	-899.798284
139.28	0.196026	0.081144	10.543771	15.503144	-808.215046	-907.034522
139.79	0.345279	0.081170	10.543485	15.616455	-817.412093	-913.319494
140.30	0.514700	0.081216	10.542564	15.814644	-843.237023	-933.602068
140.81	0.656420	0.081233	10.541889	15.845668	-859.504831	-948.438773
141.32	0.730656	0.081273	10.541931	16.018835	-862.535880	-947.527618
141.83	0.725824	0.081289	10.542601	16.132210	-849.694592	-932.788685
142.34	0.656641	0.081322	10.544120	16.278939	-818.020339	-899.352501
142.85	0.550314	0.081338	10.545170	16.375310	-796.019840	-876.249935
143.36	0.434077	0.081362	10.544850	16.479232	-805.792429	-883.290094
143.87	0.327579	0.081350	10.543546	16.428196	-834.709309	-911.994717
144.38	0.240403	0.081340	10.542802	16.385317	-850.867817	-928.349972
144.89	0.173653	0.081293	10.542662	16.181498	-849.421866	-931.446251
145.40	0.124373	0.081270	10.542638	16.081158	-847.645996	-931.955557
145.91	0.088452	0.081221	10.542771	16.241951	-848.297230	-929.045982
146.42	0.062434	0.081202	10.543497	16.181784	-830.155598	-913.061770
146.93	0.043486	0.081168	10.544377	16.302667	-812.655118	-893.713556
147.44	0.029759	0.081171	10.544004	16.312703	-821.474869	-901.906393
147.95	0.020009	0.081159	10.542949	15.995444	-838.504194	-925.117291
148.46	0.013134	0.081171	10.541929	16.027205	-862.774742	-947.571664
148.97	0.008228	0.081168	10.541183	16.010252	-879.572851	-963.967744
149.48	0.004638	0.081172	10.541215	16.030577	-879.313538	-963.274063
149.99	0.001839	0.081162	10.541885	15.984343	-862.791480	-948.528837
150.50	-0.000400	0.081174	10.542890	16.039887	-840.891480	-926.418645
151.01	-0.002277	0.081168	10.542414	16.012817	-851.254720	-936.898601
151.52	-0.003751	0.081179	10.541254	16.061721	-879.119057	-962.404666
152.03	-0.004895	0.081162	10.540579	15.863475	-890.133059	-977.264187
152.54	-0.005610	0.081153	10.540358	15.823108	-894.293166	-982.118928
153.05	-0.005938	0.081117	10.540794	15.777220	-883.179304	-972.524997
153.56	-0.005801	0.081073	10.540801	15.599020	-878.930634	-972.385194
154.07	-0.005287	0.081004	10.541001	15.295936	-867.335387	-967.979712
154.59	-0.004385	0.080956	10.541480	15.088429	-851.508213	-957.438658
155.10	-0.003253	0.080901	10.541445	14.846327	-846.752858	-958.218706
155.61	-0.001933	0.080894	10.541340	14.816499	-848.469400	-960.511093
156.12	-0.000611	0.080895	10.541021	14.822172	-855.976470	-967.547576
156.63	0.000645	0.080961	10.540491	15.107485	-874.746241	-979.187090
157.14	0.001661	0.081035	10.540713	15.551252	-879.861981	-974.322514
157.65	0.002370	0.081149	10.541346	16.057347	-876.909728	-960.393235
158.16	0.002691	0.081240	10.541484	16.688574	-888.246068	-957.346175
158.67	0.002616	0.081344	10.541083	17.156558	-908.274844	-966.175469
159.18	0.002139	0.081394	10.540974	17.388287	-916.129920	-968.580033
159.69	0.001331	0.081425	10.541421	17.662396	-912.119762	-958.735681
160.20	0.000269	0.081410	10.541139	17.598158	-917.154526	-964.948948
160.71	-0.000916	0.081391	10.541003	17.747795	-923.718618	-967.924653
161.22	-0.002136	0.081349	10.541129	17.708472	-919.909102	-965.154219
161.73	-0.003207	0.081338	10.541622	17.748720	-909.473182	-954.315557
162.24	-0.004091	0.081316	10.541835	17.672954	-902.816597	-949.629507
162.75	-0.004631	0.081308	10.541472	17.651232	-910.698681	-957.625255
163.26	-0.004855	0.081271	10.541754	17.748526	-906.427938	-951.414934
163.77	-0.004690	0.081258	10.541881	16.727191	-879.989685	-948.622410
164.28	-0.004214	0.081200	10.541692	16.709006	-883.917041	-952.768038
164.79	-0.003444	0.081174	10.541955	16.910245	-882.499562	-946.996974
165.30	-0.002511	0.081130	10.542152	16.297138	-863.838925	-942.659458
165.81	-0.001467	0.081115	10.542060	15.764877	-853.713771	-944.688710
166.32	-0.000465	0.081097	10.540952	15.207113	-866.424995	-969.061719
166.83	0.000439	0.081113	10.540928	15.615154	-876.354660	-969.573678
167.34	0.001130	0.081115	10.541185	15.599454	-870.081350	-963.934276
167.85	0.001574	0.081147	10.541035	15.974320	-882.154170	-967.219087
168.36	0.001723	0.081150	10.541919	16.165324	-866.171271	-947.778749
168.87	0.001610	0.081172	10.542068	16.375062	-867.576713	-944.513845
169.38	0.001233	0.081151	10.541450	15.774752	-867.996589	-958.096318
169.89	0.000682	0.081138	10.541404	15.261676	-857.242758	-959.104597
170.40	-0.000011	0.081088	10.541138	14.084663	-836.294731	-964.967693
170.91	-0.000713	0.081054	10.541131	2.742219	-575.356890	-965.121599
171.42	-0.001405	0.081010	10.541256	-66.657359	1025.082541	-962.369686
171.93	-0.001959	0.081017	10.541252	-196.209419	4007.225922	-962.465777
172.44	-0.002393	0.081036	10.541330	-280.435679	5947.885623	-960.748735
172.95	-0.002598	0.081080	10.542500	-313.873370	6744.606320	-934.996646
173.46	-0.002626	0.081021	10.545455	-326.533448	7104.192544	-869.982714
173.97	-0.002497	0.080674	10.549468	-331.648306	7314.469888	-781.713051
174.48	-0.002120	0.079540	10.553781	-333.900568	7465.794892	-686.819808
174.99	-0.001807	0.076986	10.557198	-334.961173	7569.013847	-611.648095
175.50	-0.001241	0.072296	10.562203	-335.483131	7696.461971	-501.536129
176.01	-0.000863	0.065320	10.564837	-335.737975	7763.077334	-443.587411
176.52	-0.000389	0.056482	10.578206	-335.851241	8074.026127	-149.458922
177.03	-0.000111	0.046726	10.581412	-335.882770	8148.680661	-78.937910
177.54	0.000166	0.037032	10.580862	-335.871291	8135.730034	-91.039516
178.05	0.000252	0.028258	10.578686	-335.844212	8084.928850	-138.904418
178.56	0.000217	0.020827	10.578914	-335.833692	8089.941094	-133.892208
179.07	0.000197	0.014901	10.575438	-335.857135	8010.302307	-210.374828
179.58	-0.000082	0.010319	10.582763	-335.938026	8181.116862	-49.210209
180.09	-0.000227	0.006892	10.584191	-336.081901	8217.361800	-17.795270
180.61	-0.000515	0.004341	10.584851	-336.320438	8238.067849	-3.281589
181.12	-0.000694	0.002489	10.581612	-336.670622	8171.440969	-74.526844
181.63	-0.000913	0.001139	10.582943	-337.210465	8214.559220	-45.250301
182.14	-0.001002	0.000183	10.583185	-338.039514	8239.227210	-39.924123
182.65	-0.001094	-0.000514	10.583108	-339.413183	8269.072862	-41.618010
183.16	-0.001085	-0.001001	10.584905	-341.762384	8364.584268	-2.094267
183.67	-0.001063	-0.001367	10.584895	-346.691698	8477.834188	-2.305294
184.18	-0.000964	-0.001618	10.584899	-363.343877	8861.244516	-2.226236
184.69	-0.000864	-0.001812	10.584903	-209.349046	5316.430313	-2.136456
185.20	-0.000852	-0.001925	10.584907	-314.226249	7730.755804	-2.052363
185.71	-0.000605	-0.002004	10.584900	-323.091955	7934.677834	-2.208310
186.22	-0.000752	-0.002023	10.584911	-326.537402	8014.254520	-1.956794
186.73	-0.000524	-0.002025	10.584902	-328.024086	8048.275740	-2.149226
187.24	-0.000674	-0.001989	10.581731	-328.762921	7992.132183	-71.928608
187.75	-0.000506	-0.001972	10.583192	-328.620836	8022.560342	-39.783061
188.26	-0.000680	-0.001932	10.584905	-327.898669	8045.445502	-2.095024
188.77	-0.000516	-0.001912	10.584905	-325.888005	7999.157388	-2.098201
189.28	-0.000638	-0.001862	10.584898	-322.006150	7909.650071	-2.239705
189.79	-0.000537	-0.001819	10.584909	-311.509414	7668.273687	-1.996566
190.30	-0.000506	-0.001746	10.584133	-256.934426	6394.073186	-19.074270
190.81	-0.000543	-0.001687	10.583915	-412.726587	9975.319511	-23.878065
191.32	-0.000366	-0.001609	10.583120	-365.867940	8878.321455	-41.361275
191.83	-0.000514	-0.001573	10.583749	-357.191870	8693.101864	-27.529097
192.34	-0.000278	-0.001549	10.581776	-354.686523	8589.935027	-70.926634
192.85	-0.000446	-0.001577	10.580108	-355.455723	8569.173654	-107.621550
193.36	-0.000273	-0.001608	10.580112	-359.700888	8666.978206	-107.543037
193.87	-0.000399	-0.001677	10.583060	-374.166722	9067.975285	-42.678890
194.38	-0.000354	-0.001735	10.582408	-521.802914	12451.468437	-57.027037
194.89	-0.000434	-0.001808	10.580121	-282.119195	6881.294235	-107.333121
195.40	-0.000536	-0.001845	10.581646	-313.704946	7643.561625	-73.780259
195.91	-0.000517	-0.001884	10.584881	-321.574082	7899.301208	-2.623932
196.42	-0.000727	-0.001886	10.584892	-325.179710	7982.551063	-2.385915
196.93	-0.000646	-0.001878	10.584875	-326.754619	8018.415914	-2.756998
197.44	-0.000834	-0.001826	10.584866	-327.594137	8037.540190	-2.948868
197.95	-0.000714	-0.001771	10.584884	-327.547017	8036.863025	-2.560115
198.46	-0.000820	-0.001700	10.584883	-326.817239	8020.054942	-2.568564
198.97	-0.000656	-0.001652	10.582700	-324.640653	7919.598726	-50.599533
199.48	-0.000663	-0.001599	10.582679	-320.164701	7816.084895	-51.056412
199.99	-0.000531	-0.001569	10.582793	-307.857454	7535.402668	-48.551081
200.50	-0.000413	-0.001529	10.580065	-244.611326	6016.588358	-108.561327
201.01	-0.000398	-0.001497	10.580068	-435.482686	10410.447754	-108.498391
201.52	-0.000203	-0.001463	10.580065	-375.148333	9021.505402	-108.561520
202.03	-0.000300	-0.001448	10.580067	-364.477136	8775.899813	-108.521739
202.54	-0.000108	-0.001426	10.580069	-361.857176	8715.619675	-108.492689
203.05	-0.000247	-0.001440	10.580076	-363.749931	8759.371669	-108.319629
203.56	-0.000140	-0.001449	10.580068	-371.758924	8943.546508	-108.500343
204.07	-0.000274	-0.001470	10.580066	-399.680491	9586.246879	-108.542840
204.58	-0.000276	-0.001465	10.580076	3560.481555	-81575.093864	-108.318809
205.09	-0.000371	-0.001462	10.580078	-279.953334	6830.449293	-108.275162
205.60	-0.000477	-0.001422	10.580070	-309.505862	7510.549832	-108.455017
206.12	-0.000490	-0.001377	10.580071	-318.290703	7712.803133	-108.427097
206.63	-0.000634	-0.001311	10.580070	-322.701293	7814.306768	-108.452497
207.14	-0.000574	-0.001264	10.580086	-324.451142	7854.946706	-108.110037
207.65	-0.000680	-0.001202	10.580077	-325.268966	7873.557258	-108.315584
208.16	-0.000594	-0.001165	10.580081	-325.018443	7867.881755	-108.228358
208.67	-0.000635	-0.001114	10.580068	-323.346686	7829.105200	-108.508111
209.18	-0.000513	-0.001084	10.580072	-321.229060	7780.465159	-108.406056
209.69	-0.000494	-0.001046	10.580076	-314.304790	7621.148867	-108.331616
210.20	-0.000417	-0.001027	10.580105	-304.419891	7394.266678	-107.697466
210.71	-0.000322	-0.001025	10.580085	-263.305452	6447.381836	-108.121485
211.22	-0.000320	-0.001013	10.580094	-78.654482	2196.976576	-107.933655
211.73	-0.000212	-0.001042	10.580085	-517.099435	12289.623254	-108.130307
212.24	-0.000259	-0.001034	10.580102	-455.070035	10862.128981	-107.747528
212.75	-0.000185	-0.001105	10.580090	-483.066874	11506.332246	-108.009265
213.26	-0.000246	-0.001088	10.583387	-495.785292	11875.122693	-35.496446
213.77	-0.000220	-0.001179	10.584865	70.459676	-1125.544868	-2.970275
214.28	-0.000296	-0.001153	10.584894	-193.763936	4957.453815	-2.339250
214.79	-0.000317	-0.001214	10.584912	-271.172781	6739.808101	-1.929866
215.30	-0.000352	-0.001156	10.584917	-290.885888	7193.696534	-1.835008
215.81	-0.000415	-0.001165	10.584927	-301.978020	7449.272848	-1.606797
216.32	-0.000412	-0.001095	10.584923	-307.187301	7569.104941	-1.686723
216.83	-0.000470	-0.001083	10.584921	-310.094527	7635.967639	-1.744561
217.34	-0.000466	-0.001031	10.584928	-311.240583	7662.516552	-1.585172
217.85	-0.000488	-0.001023	10.584923	-310.887029	7654.257693	-1.699795
218.36	-0.000459	-0.000994	10.584897	-308.964607	7609.416100	-2.260793
218.87	-0.000463	-0.000987	10.584901	-305.790387	7536.437905	-2.173745
219.38	-0.000418	-0.000978	10.584917	-305.615036	7532.760558	-1.831126
219.89	-0.000393	-0.000970	10.584918	-292.625724	7233.782284	-1.801315
220.40	-0.000372	-0.000970	10.584918	-301.555834	7439.352126	-1.799638
220.91	-0.000321	-0.000967	10.584916	-285.722986	7074.826227	-1.856049
221.42	-0.000324	-0.000968	10.584913	-297.433566	7344.334985	-1.917865
221.93	-0.000270	-0.000972	10.584910	-283.618586	7026.264073	-1.970128
222.44	-0.000286	-0.000986	10.581791	-297.026075	7262.950684	-70.602842
222.95	-0.000261	-0.001005	10.582022	-282.815141	6941.154070	-65.514486
223.46	-0.000259	-0.001031	10.581303	-292.289718	7142.674707	-81.331082
223.97	-0.000275	-0.001042	10.580118	-283.094968	6903.683688	-107.402283
224.48	-0.000265	-0.001061	10.580097	-278.543245	6798.421358	-107.863235
224.99	-0.000290	-0.001072	10.580096	-282.068234	6879.535445	-107.891816
225.50	-0.000306	-0.001087	10.580111	-253.860730	6230.553671	-107.562394
226.01	-0.000314	-0.001097	10.585098	-277.601936	6892.092871	2.160309
226.52	-0.000331	-0.001118	10.585100	-223.696633	5651.249963	2.197232
227.03	-0.000341	-0.001127	10.585089	-266.443599	6635.013859	1.952432
227.54	-0.000350	-0.001136	10.585082	-219.876695	5562.897834	1.798062
228.05	-0.000352	-0.001116	10.585079	-258.651256	6455.411287	1.737331
228.56	-0.000358	-0.001102	10.585080	-249.647890	6248.183811	1.763008
229.07	-0.000338	-0.001072	10.585082	-268.016189	6671.067031	1.811911
229.58	-0.000360	-0.001063	10.585083	-281.776006	6987.835222	1.832810
230.09	-0.000330	-0.001042	10.585082	-280.858840	6966.683716	1.795945
230.60	-0.000339	-0.001049	10.585092	-297.182150	7342.677762	2.022054
231.11	-0.000322	-0.001059	10.585093	-291.628132	7214.855659	2.050185
231.62	-0.000302	-0.001085	10.585088	-301.251006	7436.240825	1.926065
232.14	-0.000294	-0.001092	10.585087	-294.773349	7287.108095	1.907680
232.65	-0.000265	-0.001102	10.585075	-300.040062	7408.065140	1.639742
233.16	-0.000270	-0.001077	10.585085	-291.556117	7213.020130	1.880600
233.67	-0.000244	-0.001051	10.585082	-293.158830	7249.823993	1.794699
234.18	-0.000263	-0.001012	10.585065	-284.017678	7039.023461	1.437626
234.69	-0.000250	-0.000984	10.585063	-270.441408	6726.443134	1.381120
235.20	-0.000254	-0.000942	10.585071	-270.998689	6739.465925	1.566540
235.71	-0.000266	-0.000920	10.585088	-209.252987	5318.482429	1.930389
236.22	-0.000255	-0.000899	10.585089	-252.871962	6322.609283	1.961846
236.73	-0.000284	-0.000904	10.585087	-99.270071	2786.692395	1.910430
237.24	-0.000278	-0.000906	10.585079	-233.862713	5884.796309	1.745725
237.75	-0.000298	-0.000924	10.585076	-150.836177	3973.469424	1.665180
238.26	-0.000297	-0.000906	10.585078	-244.093220	6120.275026	1.722774
238.77	-0.000312	-0.000887	10.585075	-246.926105	6185.421307	1.660040
239.28	-0.000299	-0.000854	10.585076	-272.684197	6778.387815	1.682977
239.79	-0.000310	-0.000830	10.585081	-288.777794	7148.969887	1.790752
240.30	-0.000297	-0.000818	10.585074	-290.766839	7194.586953	1.628525
240.81	-0.000300	-0.000839	10.585072	-300.658213	7422.243452	1.590780
241.32	-0.000290	-0.000864	10.585080	-295.485213	7303.344463	1.764125
241.83	-0.000274	-0.000907	10.585082	-300.342400	7415.195409	1.802423
242.34	-0.000277	-0.000938	10.585108	-293.298962	7253.654490	2.371534
242.85	-0.000253	-0.000973	10.585100	-294.720548	7286.195597	2.196680
243.36	-0.000256	-0.000963	10.585097	-284.850104	7058.917674	2.135934
243.87	-0.000236	-0.000938	10.585089	-284.247661	7044.853810	1.949120
244.38	-0.000241	-0.000894	10.585093	-277.189811	6882.479113	2.039352
244.89	-0.000234	-0.000857	10.585091	-262.639028	6547.475779	1.992347
245.40	-0.000237	-0.000803	10.585100	-266.793997	6643.345983	2.206258
245.91	-0.000250	-0.000774	10.585110	-234.186822	5892.961267	2.417353
246.42	-0.000250	-0.000729	10.585092	-258.291779	6447.436840	2.024057
246.93	-0.000264	-0.000699	10.585084	-230.872947	5816.075845	1.843910
247.44	-0.000258	-0.000659	10.585078	-262.153155	6535.996251	1.711039
247.95	-0.000273	-0.000636	10.585078	-256.128196	6397.313337	1.720174
248.46	-0.000262	-0.000595	10.585078	-281.068970	6971.427553	1.706961
248.97	-0.000276	-0.000575	10.585078	-286.623602	7099.302386	1.715640
249.48	-0.000265	-0.000549	10.585085	-293.963248	7268.412061	1.862091
249.99	-0.000268	-0.000554	10.585081	-300.284544	7413.844209	1.783944
250.50	-0.000264	-0.000574	10.585081	-298.704174	7377.467825	1.786988
251.01	-0.000255	-0.000632	10.589897	-300.041006	7519.306766	107.732952
251.52	-0.000253	-0.000689	10.589900	-296.178454	7430.454123	107.792077
252.03	-0.000248	-0.000754	10.589888	-294.303618	7387.018989	107.527805
252.54	-0.000247	-0.000794	10.589913	-289.033448	7266.275628	108.075489
253.05	-0.000238	-0.000838	10.589926	-286.746076	7213.931173	108.371268
253.56	-0.000238	-0.000858	10.589927	-279.828457	7054.720413	108.400320
254.07	-0.000228	-0.000886	10.589923	-274.070803	6922.086836	108.310327
254.58	-0.000236	-0.000895	10.589926	-269.901644	6826.174099	108.367439
255.09	-0.000234	-0.000908	10.589927	-257.685784	6544.989568	108.386894
255.60	-0.000237	-0.000894	10.589924	-259.841112	6594.545996	108.331104
256.11	-0.000244	-0.000888	10.589918	-244.613507	6243.868649	108.194610
256.62	-0.000235	-0.000871	10.589924	-251.535562	6403.353335	108.329435
257.13	-0.000253	-0.000870	10.589932	-243.260169	6213.034373	108.498993
257.65	-0.000240	-0.000861	10.589933	-243.610766	6221.139120	108.531536
258.16	-0.000255	-0.000881	10.589933	-247.153061	6302.666851	108.517526
258.67	-0.000243	-0.000898	10.589935	-241.984459	6183.745620	108.573067
259.18	-0.000248	-0.000924	10.589932	-247.591536	6312.739357	108.497467
259.69	-0.000240	-0.000925	10.589934	-252.237712	6419.747548	108.549753
260.20	-0.000240	-0.000924	10.589937	-254.501570	6471.934831	108.620378
260.71	-0.000231	-0.000895	10.589933	-261.255236	6627.296531	108.519856
261.22	-0.000231	-0.000875	10.589934	-265.265154	6719.630392	108.545550
261.73	-0.000225	-0.000828	10.589927	-270.923487	6849.713657	108.383723
262.24	-0.000219	-0.000791	10.589927	-274.391415	6929.552622	108.391791
262.75	-0.000221	-0.000737	10.589937	-279.714592	7052.317173	108.608182
263.26	-0.000215	-0.000712	10.589936	-278.306682	7019.891456	108.592810
263.77	-0.000216	-0.000702	10.589936	-282.751244	7122.203175	108.592252
264.28	-0.000208	-0.000730	10.589934	-275.340328	6951.561441	108.549347
264.79	-0.000210	-0.000752	10.589936	-275.089464	6945.825642	108.586557
265.30	-0.000207	-0.000789	10.589930	-268.559005	6795.373685	108.469194
265.81	-0.000209	-0.000799	10.589924	-262.914182	6665.276785	108.321330
266.32	-0.000209	-0.000816	10.589940	-259.332596	6583.198760	108.673183
266.83	-0.000207	-0.000808	10.589944	-251.515685	6403.349480	108.762238
267.34	-0.000218	-0.000816	10.589945	-252.149917	6417.970099	108.782076
267.85	-0.000213	-0.000811	10.589943	-243.698809	6223.389707	108.745100
268.36	-0.000217	-0.000827	10.589943	-248.685111	6338.173583	108.745962
268.87	-0.000217	-0.000831	10.589941	-243.587363	6220.785537	108.708159
269.38	-0.000218	-0.000833	10.589939	-244.746319	6247.420628	108.666489
269.89	-0.000213	-0.000810	10.589919	-251.412583	6400.405119	108.217562
270.40	-0.000217	-0.000781	10.589931	-251.318768	6398.515114	108.474717
270.91	-0.000210	-0.000728	10.589936	-265.396022	6722.694978	108.595185
271.42	-0.000217	-0.000688	10.589934	-267.773692	6777.373282	108.542875
271.93	-0.000212	-0.000654	10.589934	-275.790144	6961.910753	108.544295
272.44	-0.000212	-0.000644	10.589931	-276.475178	6977.625547	108.492342
272.95	-0.000211	-0.000648	10.589937	-279.249128	7041.612198	108.617576
273.46	-0.000207	-0.000693	10.589937	-272.377517	6883.428154	108.615749
273.97	-0.000203	-0.000736	10.589926	-270.615544	6842.608147	108.367745
274.48	-0.000193	-0.000788	10.589928	-262.722535	6660.963278	108.414958
274.99	-0.000188	-0.000814	10.589914	-261.170687	6624.908424	108.098410
275.50	-0.000194	-0.000820	10.589929	-257.769715	6546.976291	108.439025
276.01	-0.000189	-0.000783	10.589930	-256.996513	6529.191072	108.452027
276.52	-0.000187	-0.000733	10.589904	-262.887455	6664.204947	107.885787
277.03	-0.000189	-0.000671	10.589920	-262.880414	6664.407801	108.233903
277.54	-0.000183	-0.000629	10.589920	-268.434433	6792.268778	108.242828
278.05	-0.000179	-0.000586	10.589920	-267.602011	6773.094063	108.230765
278.56	-0.000185	-0.000578	10.589920	-269.921073	6826.490869	108.242966
279.07	-0.000173	-0.000584	10.589921	-267.277450	6765.652044	108.258689
279.58	-0.000180	-0.000627	10.589928	-263.065228	6668.845415	108.408726
280.09	-0.000174	-0.000677	10.589927	-261.227039	6626.524846	108.402921
280.60	-0.000179	-0.000741	10.589936	-253.897731	6458.005375	108.592448
281.11	-0.000171	-0.000786	10.589945	-253.585008	6451.009807	108.786295
281.62	-0.000175	-0.000828	10.589944	-246.825156	6295.379301	108.766229
282.13	-0.000172	-0.000826	10.589944	-252.202422	6419.152748	108.757282
282.64	-0.000182	-0.000827	10.589946	-248.413253	6331.990283	108.817305
283.15	-0.000183	-0.000798	10.589945	-255.874764	6503.722346	108.789276
283.67	-0.000181	-0.000773	10.589934	-255.246374	6489.013177	108.556669
284.18	-0.000179	-0.000735	10.589918	-260.358409	6606.315577	108.199054
284.69	-0.000172	-0.000721	10.589935	-260.546115	6611.015319	108.560422
285.20	-0.000171	-0.000693	10.589938	-260.829199	6617.618376	108.642980
285.71	-0.000169	-0.000703	10.589938	-259.325137	6582.981075	108.629323
286.22	-0.000168	-0.000688	10.589939	-259.305840	6582.562831	108.654091
286.73	-0.000172	-0.000686	10.589940	-259.259989	6581.537172	108.682545
287.24	-0.000173	-0.000656	10.589936	-259.704649	6591.687116	108.600535
287.75	-0.000172	-0.000641	10.589927	-261.658786	6636.450549	108.390547
288.26	-0.000170	-0.000617	10.589939	-261.318859	6628.906131	108.658195
288.77	-0.000166	-0.000605	10.589940	-265.175196	6717.696323	108.675980
289.28	-0.000161	-0.000584	10.589935	-267.139505	6762.812716	108.579321
289.79	-0.000165	-0.000590	10.589936	-267.397966	6768.784471	108.600375
290.30	-0.000161	-0.000577	10.589933	-270.918360	6849.735856	108.517490
290.81	-0.000161	-0.000591	10.589923	-266.724309	6752.970214	108.307609
291.32	-0.000157	-0.000576	10.589921	-273.603772	6911.275595	108.252759
291.83	-0.000165	-0.000563	10.589933	-271.414913	6861.168491	108.519546
292.34	-0.000157	-0.000541	10.589932	-277.852609	7009.351427	108.509403
292.85	-0.000161	-0.000531	10.589932	-276.079293	6968.515823	108.495611
293.36	-0.000158	-0.000515	10.589922	-279.298368	7042.386265	108.274720
293.87	-0.000162	-0.000529	10.589929	-275.586343	6957.109562	108.439592
294.38	-0.000159	-0.000529	10.589937	-275.550985	6956.487224	108.622340
294.89	-0.000160	-0.000541	10.589939	-271.545447	6864.315193	108.654867
295.40	-0.000156	-0.000533	10.589938	-272.614690	6888.905595	108.632728
295.91	-0.000159	-0.000530	10.589929	-271.264305	6857.612398	108.434504
296.42	-0.000159	-0.000531	10.589913	-269.163408	6808.886278	108.087099
296.93	-0.000158	-0.000551	10.589927	-267.472330	6770.279767	108.393803
297.44	-0.000160	-0.000577	10.589933	-261.905991	6642.288097	108.530741
297.95	-0.000159	-0.000638	10.589934	-254.362797	6468.669437	108.552756
298.46	-0.000154	-0.000686	10.589936	-244.509878	6241.892535	108.585128
298.97	-0.000161	-0.000740	10.589936	-237.795249	6087.326487	108.587420
299.48	-0.000158	-0.000753	10.589938	-234.770384	6017.742311	108.632438
299.99	-0.000161	-0.000752	10.589937	-235.915402	6044.073716	108.607130
300.50	-0.000154	-0.000710	10.589937	-241.758777	6178.588717	108.609532
301.01	-0.000158	-0.000672	10.589938	-246.071178	6277.883158	108.632846
301.52	-0.000157	-0.000626	10.589934	-256.575904	6519.619253	108.557381
302.03	-0.000153	-0.000609	10.589937	-257.007585	6529.622641	108.620576
302.54	-0.000155	-0.000597	10.589940	-259.946083	6597.337312	108.688739
303.05	-0.000160	-0.000616	10.589940	-257.652384	6544.520643	108.672986
303.56	-0.000155	-0.000612	10.589937	-258.574928	6565.705206	108.623300
304.07	-0.000155	-0.000622	10.589938	-255.317125	6490.735712	108.646223
304.58	-0.000153	-0.000619	10.589940	-257.265187	6535.626229	108.690858
305.09	-0.000148	-0.000623	10.589942	-253.939734	6459.104429	108.718516
305.60	-0.000146	-0.000629	10.589944	-255.905736	6504.406275	108.761581
306.11	-0.000145	-0.000665	10.589944	-249.080389	6347.289774	108.762203
306.62	-0.000142	-0.000704	10.589941	-243.613835	6221.377229	108.691279
307.13	-0.000144	-0.000764	10.589940	-235.334866	6030.783905	108.677667
307.64	-0.000144	-0.000796	10.589939	-228.635809	5876.547464	108.652436
308.15	-0.000145	-0.000819	10.589936	-223.452547	5757.168555	108.593294
308.66	-0.000144	-0.000803	10.589939	-219.650110	5669.707769	108.660089
309.18	-0.000140	-0.000778	10.589939	-220.515604	5689.634684	108.663461
309.69	-0.000137	-0.000719	10.589939	-232.571332	5967.140439	108.651095
310.20	-0.000142	-0.000655	10.589930	-239.836102	6134.183110	108.469987
310.71	-0.000139	-0.000579	10.589940	-250.101918	6370.722564	108.683537
311.22	-0.000141	-0.000529	10.589943	-258.809529	6571.234346	108.746091
311.73	-0.000143	-0.000480	10.589944	-263.804940	6686.248043	108.766157
312.24	-0.000141	-0.000453	10.589942	-266.230613	6742.053279	108.734747
312.75	-0.000136	-0.000426	10.589942	-272.830566	6893.971389	108.724682
313.26	-0.000137	-0.000418	10.589941	-269.480646	6816.838554	108.706722
313.77	-0.000137	-0.000409	10.589944	-273.730209	6914.726551	108.768265
314.28	-0.000136	-0.000421	10.589943	-269.387463	6814.733992	108.745341
314.79	-0.000141	-0.000423	10.589942	-271.059723	6853.206122	108.723663
315.30	-0.000145	-0.000451	10.589941	-263.150017	6671.108423	108.705570
315.81	-0.000139	-0.000477	10.589939	-260.943769	6620.274988	108.661353
316.32	-0.000145	-0.000507	10.589941	-254.656718	6475.590236	108.700473
316.83	-0.000136	-0.000528	10.589942	-255.724104	6500.193353	108.731236
317.34	-0.000139	-0.000562	10.589943	-250.872737	6388.542221	108.755724
317.85	-0.000135	-0.000589	10.589942	-245.927823	6274.672787	108.718326
318.36	-0.000138	-0.000637	10.589941	-236.837670	6065.395117	108.694038
318.87	-0.000136	-0.000665	10.589943	-227.966380	5861.243362	108.753489
319.38	-0.000127	-0.000693	10.589942	-222.906556	5744.741126	108.727889
319.89	-0.000127	-0.000688	10.589941	-222.703255	5740.040134	108.707793
320.40	-0.000125	-0.000687	10.589942	-221.699893	5716.963720	108.727490
320.91	-0.000120	-0.000665	10.589941	-228.467022	5872.708686	108.696938
321.42	-0.000125	-0.000641	10.589923	-232.988111	5976.374252	108.307385
321.93	-0.000121	-0.000610	10.621513	-237.503758	6808.884982	803.286465
322.44	-0.000128	-0.000595	10.620104	-238.513977	6799.635062	772.279965
322.95	-0.000127	-0.000573	10.620099	-240.102440	6836.103304	772.186838
323.46	-0.000132	-0.000571	10.620099	-237.398364	6773.844250	772.175248
323.97	-0.000127	-0.000555	10.620097	-242.805072	6898.269431	772.141474
324.48	-0.000127	-0.000557	10.620100	-239.725765	6827.454007	772.207458
324.99	-0.000128	-0.000546	10.620087	-241.652211	6871.498377	771.919617
325.50	-0.000127	-0.000538	10.620080	-240.927637	6854.657966	771.766074
326.01	-0.000123	-0.000522	10.620075	-248.059225	7018.703585	771.650561
326.52	-0.000128	-0.000530	10.620077	-242.315226	6886.527240	771.696870
327.03	-0.000132	-0.000522	10.620079	-246.193567	6975.856152	771.745347
327.54	-0.000124	-0.000530	10.620083	-242.879308	6899.646178	771.824659
328.05	-0.000130	-0.000515	10.620086	-247.780367	7012.547008	771.901095
328.56	-0.000126	-0.000506	10.620080	-247.930777	7015.865384	771.763711
329.07	-0.000122	-0.000494	10.620074	-250.073552	7065.053101	771.631852
329.58	-0.000122	-0.000490	10.620078	-248.698682	7033.482882	771.707049
330.09	-0.000120	-0.000483	10.612188	-251.753491	6921.856501	598.146835
330.60	-0.000132	-0.000504	10.611951	-247.892117	6827.493234	592.923473
331.11	-0.000127	-0.000509	10.612743	-246.257759	6808.142687	610.353066
331.62	-0.000135	-0.000533	10.614867	-243.252920	6787.958309	657.081040
332.13	-0.000129	-0.000531	10.614346	-243.443506	6780.317688	645.607624
332.64	-0.000130	-0.000517	10.614650	-242.837340	6773.374523	652.295034
333.15	-0.000124	-0.000481	10.614892	-253.293566	7019.670106	657.633888
333.66	-0.000124	-0.000442	10.614900	-258.606404	7142.143267	657.799347
334.17	-0.000118	-0.000401	10.614901	-267.428588	7345.256899	657.827921
334.69	-0.000121	-0.000384	10.614877	-267.417380	7344.445861	657.300391
335.20	-0.000119	-0.000366	10.614902	-272.311621	7457.682573	657.846940
335.71	-0.000122	-0.000370	10.612276	-271.339663	7374.744380	600.074589
336.22	-0.000125	-0.000366	10.610134	-270.292328	7301.240709	552.957024
336.73	-0.000127	-0.000380	10.610123	-268.616481	7262.400272	552.706148
337.24	-0.000125	-0.000381	10.610112	-270.473154	7304.874906	552.453033
