Length [m]	OTDR [V]	Brillouin intensity [V]	Fitted Frequency [GHz]	Temperature [”]	Compensated Strain [レュ]	Uncompensated Strain [レュ]
0.51	0.007054	0.040515	10.502116	-163.253967	2336.802310	-1823.453369
1.02	0.007089	0.044194	10.483972	-136.885495	1311.348180	-2222.625379
1.53	0.007027	0.047293	10.470575	-94.253788	21.021607	-2517.343181
2.04	0.007068	0.049895	10.460604	-52.318491	-1174.285420	-2736.713538
2.55	0.007031	0.052066	10.451509	-32.156700	-1848.159582	-2936.801451
3.06	0.007079	0.053883	10.446082	-27.655356	-2076.942461	-3056.195531
3.57	0.007029	0.055411	10.444348	-38.996557	-1855.863523	-3094.343747
4.08	0.007076	0.056694	10.442996	-38.475017	-1899.042495	-3124.080116
4.59	0.007006	0.057738	10.442734	-21.444879	-2297.114487	-3129.845562
5.10	0.007050	0.058603	10.442333	7.987063	-2983.891307	-3138.682139
5.61	0.007001	0.059272	10.442723	25.400221	-3375.724587	-3130.085857
6.12	0.007046	0.059776	10.442392	28.165806	-3447.021018	-3137.367603
6.63	0.006989	0.060153	10.441213	10.322435	-3063.477404	-3163.318291
7.14	0.007054	0.060457	10.442335	-4.096631	-2705.678147	-3138.633809
7.65	0.007010	0.060708	10.441707	-11.954164	-2539.273009	-3152.439281
8.16	0.007075	0.060921	10.441946	0.135047	-2812.047490	-3147.178482
8.67	0.007028	0.061060	10.443080	17.859908	-3193.919547	-3122.235588
9.18	0.007091	0.061143	10.443256	38.070082	-3655.105178	-3118.376410
9.69	0.007020	0.061134	10.440838	43.792503	-3842.602237	-3171.574629
10.20	0.007050	0.061091	10.439588	44.997422	-3899.161848	-3199.068840
10.71	0.006987	0.061057	10.439427	36.754324	-3713.122383	-3202.611483
11.22	0.007043	0.061052	10.438665	36.142892	-3716.616737	-3219.370931
11.73	0.006991	0.061055	10.438258	36.445789	-3732.963586	-3228.313086
12.24	0.007051	0.061052	10.439444	46.937536	-3947.139412	-3202.232764
12.75	0.006992	0.061023	10.439362	50.212743	-4024.416795	-3204.029199
13.26	0.007028	0.060972	10.439377	54.167391	-4115.116054	-3203.709262
13.77	0.006949	0.060902	10.439870	46.760343	-3933.236721	-3192.861805
14.28	0.006995	0.060881	10.441382	41.483486	-3776.883203	-3159.587628
14.79	0.006943	0.060899	10.440902	29.147812	-3504.009460	-3170.165724
15.30	0.007001	0.060948	10.440592	23.028865	-3370.297084	-3176.980123
15.81	0.006938	0.060993	10.441625	15.860551	-3181.461613	-3154.254923
16.32	0.006952	0.061021	10.440723	18.538333	-3263.902758	-3174.095698
16.83	0.006827	0.061028	10.440688	19.219044	-3280.388736	-3174.874306
17.34	0.006774	0.061020	10.440592	25.320580	-3423.046249	-3176.975033
17.85	0.006619	0.061005	10.439215	25.846781	-3466.918649	-3207.270530
18.36	0.006582	0.061030	10.439035	27.979799	-3520.161207	-3211.220842
18.87	0.006451	0.061069	10.438948	22.100990	-3386.853561	-3213.148246
19.38	0.006441	0.061124	10.439706	24.219655	-3418.147661	-3196.476992
19.89	0.006326	0.061141	10.441010	26.211030	-3433.909518	-3167.784559
20.40	0.006323	0.061111	10.441844	37.765929	-3680.656815	-3149.429015
20.91	0.006219	0.061025	10.441436	41.930689	-3785.951255	-3158.417758
21.42	0.006224	0.060919	10.441935	50.600766	-3974.025046	-3147.439820
21.93	0.006146	0.060823	10.442750	46.694000	-3865.283669	-3129.497861
22.44	0.006182	0.060770	10.443249	41.764535	-3740.300736	-3118.519991
22.95	0.006127	0.060740	10.442828	32.602917	-3539.122759	-3127.791310
23.46	0.006171	0.060730	10.442891	32.748642	-3541.010027	-3126.391677
23.97	0.006118	0.060716	10.442446	31.631073	-3525.557391	-3136.191539
24.48	0.006162	0.060699	10.441923	37.427942	-3671.067851	-3147.703769
24.99	0.006107	0.060654	10.442127	36.160068	-3637.173960	-3143.212919
25.50	0.006152	0.060622	10.441774	36.418655	-3651.270064	-3150.981063
26.02	0.006102	0.060596	10.443172	27.813131	-3420.911565	-3120.205906
26.53	0.006164	0.060588	10.444010	24.391478	-3322.821267	-3101.771670
27.04	0.006119	0.060600	10.442940	20.839978	-3265.760940	-3125.327397
27.55	0.006175	0.060612	10.443268	26.286984	-3383.586235	-3118.113093
28.06	0.006131	0.060620	10.443029	28.370477	-3437.055218	-3123.366891
28.57	0.006186	0.060618	10.442093	36.161192	-3637.982847	-3143.959826
29.08	0.006130	0.060597	10.441801	34.666720	-3610.299602	-3150.369114
29.59	0.006176	0.060580	10.442021	35.456467	-3623.420889	-3145.543849
30.10	0.006119	0.060559	10.441653	30.613270	-3520.407028	-3153.628094
30.61	0.006173	0.060542	10.441186	32.423576	-3572.848991	-3163.901005
31.12	0.006116	0.060525	10.442027	31.924912	-3541.988531	-3145.413017
31.63	0.006167	0.060513	10.442341	38.369003	-3683.072246	-3138.490471
32.14	0.006115	0.060496	10.442494	36.473607	-3635.922569	-3135.134330
32.65	0.006154	0.060492	10.442706	40.322476	-3719.622875	-3130.460824
33.16	0.006100	0.060467	10.443212	34.641202	-3577.175138	-3119.331847
33.67	0.006152	0.060499	10.444175	34.119569	-3542.967621	-3098.155444
34.18	0.006106	0.060476	10.444817	29.993958	-3433.194112	-3084.034443
34.69	0.006172	0.060536	10.444960	32.450558	-3486.430986	-3080.873947
35.20	0.006117	0.060498	10.445335	30.377583	-3430.073132	-3072.633463
35.71	0.006169	0.060533	10.445274	33.851172	-3511.444847	-3073.979321
36.22	0.006118	0.060461	10.444881	31.271160	-3461.111865	-3082.619806
36.73	0.006161	0.060453	10.445581	33.180981	-3488.925414	-3067.214347
37.24	0.006105	0.060366	10.445992	30.112166	-3408.807826	-3058.176559
37.75	0.006161	0.060360	10.446025	32.710207	-3467.861624	-3057.459023
38.26	0.006109	0.060305	10.445641	29.872132	-3411.374511	-3065.895745
38.77	0.006167	0.060308	10.445108	33.583746	-3509.100177	-3077.615012
39.28	0.006117	0.060267	10.444701	30.990694	-3458.802386	-3086.575403
39.79	0.006172	0.060255	10.444601	33.526065	-3519.464339	-3088.768029
40.30	0.006108	0.060206	10.444742	30.838602	-3454.368940	-3085.686044
40.81	0.006158	0.060193	10.444513	33.779064	-3527.325624	-3090.711461
41.32	0.006103	0.060172	10.445199	30.217958	-3429.526580	-3075.617254
41.83	0.006164	0.060194	10.446107	32.656521	-3464.732791	-3055.653270
42.34	0.006110	0.060209	10.445779	29.368086	-3396.581440	-3062.852677
42.85	0.006156	0.060241	10.446172	32.031388	-3448.841854	-3054.221852
43.36	0.006101	0.060240	10.446224	28.737679	-3371.820485	-3053.075909
43.87	0.006143	0.060231	10.445658	32.383342	-3468.802019	-3065.533564
44.38	0.006090	0.060182	10.444824	30.520352	-3445.138880	-3083.869757
44.89	0.006145	0.060138	10.445071	33.571375	-3509.677483	-3078.437365
45.40	0.006096	0.060093	10.445894	30.305304	-3415.504424	-3060.323444
45.91	0.006159	0.060070	10.445896	32.924959	-3475.770006	-3060.287214
46.42	0.006104	0.060059	10.446241	29.693600	-3393.429945	-3052.698635
46.93	0.006157	0.060071	10.445800	32.870236	-3476.716381	-3062.391621
47.44	0.006100	0.060069	10.445828	30.974560	-3432.448802	-3061.790884
47.95	0.006150	0.060071	10.447008	35.196663	-3502.426942	-3035.832048
48.46	0.006096	0.060066	10.447426	32.665983	-3434.527863	-3026.632870
48.97	0.006146	0.060061	10.448741	35.423486	-3467.670778	-2997.697253
49.48	0.006091	0.060058	10.454621	32.291421	-3259.954847	-2868.331623
49.99	0.006144	0.060018	10.474474	35.442901	-2874.647246	-2431.582771
50.50	0.006089	0.059904	10.506521	33.952368	-2101.213424	-1726.530275
51.01	0.006134	0.059658	10.533932	39.216845	-1590.217540	-1123.488322
51.53	0.006081	0.059240	10.554104	39.551483	-1132.699586	-679.711448
52.04	0.006132	0.058669	10.561140	44.631591	-1087.372638	-524.921953
52.55	0.006082	0.057959	10.565028	42.160621	-940.831379	-439.394450
53.06	0.006139	0.057177	10.565854	44.640469	-978.858802	-421.215100
53.57	0.006088	0.056360	10.566574	39.752775	-849.748508	-405.382892
54.08	0.006146	0.055561	10.566993	41.169779	-872.693960	-396.155299
54.59	0.006091	0.054765	10.567946	35.910389	-729.650117	-375.193717
55.10	0.006142	0.054038	10.568662	37.091527	-740.326708	-359.442085
55.61	0.006083	0.053379	10.568335	32.198178	-635.229388	-366.640151
56.12	0.006133	0.052840	10.568002	33.131102	-664.383936	-373.965159
56.63	0.006083	0.052421	10.568521	28.053926	-535.534445	-362.542490
57.14	0.006137	0.052115	10.568807	29.184025	-554.937409	-356.235704
57.65	0.006078	0.051912	10.569190	25.146049	-453.173089	-347.830379
58.16	0.006131	0.051772	10.569147	27.302071	-503.786589	-348.767707
58.67	0.006073	0.051671	10.569438	23.951192	-419.933417	-342.360230
59.18	0.006120	0.051612	10.569607	26.799509	-481.595851	-338.635394
59.69	0.006068	0.051555	10.569483	23.730250	-413.809769	-341.370420
60.20	0.006120	0.051523	10.569771	26.455254	-469.890402	-335.028847
60.71	0.006070	0.051482	10.570407	22.497368	-364.113770	-321.037482
61.22	0.006128	0.051442	10.569876	24.904637	-431.778446	-332.722996
61.73	0.006077	0.051391	10.569548	21.208605	-354.262976	-339.940163
62.24	0.006126	0.051340	10.570028	23.454441	-394.899720	-329.388399
62.75	0.006072	0.051270	10.570202	19.748445	-305.571024	-325.555684
63.26	0.006119	0.051205	10.570272	22.598019	-369.555560	-324.018297
63.77	0.006064	0.051140	10.569792	19.440011	-307.935427	-334.583862
64.28	0.006109	0.051106	10.569377	22.523327	-388.479774	-343.710314
64.79	0.006059	0.051091	10.569677	19.265152	-306.551083	-337.102989
65.30	0.006112	0.051105	10.570222	22.682860	-372.666617	-325.122963
65.81	0.006070	0.051121	10.570148	19.782896	-307.620995	-326.754655
66.32	0.006128	0.051150	10.569967	23.073168	-387.533312	-330.733771
66.83	0.006080	0.051147	10.569872	20.751397	-336.279770	-332.825515
67.34	0.006129	0.051134	10.570390	23.824645	-395.062894	-321.414914
67.85	0.006059	0.051093	10.570440	20.460161	-316.465232	-320.319463
68.36	0.006080	0.051055	10.569436	22.938216	-396.675112	-342.417528
68.87	0.006001	0.051015	10.569031	18.775704	-310.178473	-351.310747
69.38	0.006014	0.050978	10.569707	21.730218	-362.599511	-336.438554
69.89	0.005931	0.050950	10.570622	18.478635	-266.663756	-316.325058
70.40	0.005961	0.050952	10.570956	21.507918	-328.694209	-308.977494
70.91	0.005889	0.050946	10.571260	18.962150	-263.072338	-302.281891
71.42	0.005930	0.050969	10.571217	22.392734	-343.024364	-303.217819
71.93	0.005863	0.050978	10.570982	19.126382	-273.268031	-308.401299
72.44	0.005981	0.050998	10.570949	22.323163	-347.610324	-309.120056
72.95	0.006510	0.051015	10.571029	19.044081	-270.280123	-307.358346
73.46	0.014370	0.051041	10.571546	22.175236	-330.448003	-295.997109
73.97	0.061095	0.051066	10.571345	19.107769	-264.464438	-300.412220
74.48	0.195841	0.051112	10.570857	23.194126	-369.784173	-311.146704
74.99	0.482994	0.051166	10.570911	20.677216	-310.600262	-309.958623
75.50	0.991411	0.051225	10.570825	24.305022	-396.099682	-311.855526
76.01	1.646584	0.051256	10.570530	20.935007	-325.315341	-318.334687
76.52	2.220876	0.051273	10.570056	24.235308	-412.215780	-328.759574
77.03	2.587878	0.051255	10.569065	21.381945	-369.386435	-350.560212
77.55	2.798200	0.051225	10.569888	24.438320	-420.783338	-332.474343
78.06	2.919557	0.051181	10.570796	21.640485	-335.423711	-312.485817
78.57	2.983385	0.051141	10.571548	24.492144	-383.736369	-295.953154
79.08	3.023710	0.051102	10.571449	20.971190	-304.962323	-298.125317
79.59	3.066019	0.051089	10.571088	23.778214	-377.908251	-306.070569
80.10	3.106671	0.051078	10.570898	20.001668	-295.345005	-310.240607
80.61	3.135710	0.051093	10.571075	23.301287	-367.231851	-306.358940
81.12	3.154984	0.051091	10.570986	20.176764	-297.361163	-308.318980
81.63	3.168299	0.051088	10.570999	23.501591	-373.597246	-308.032534
82.14	3.175710	0.051086	10.571298	20.583840	-299.529018	-301.448109
82.65	3.177677	0.051091	10.571629	23.771756	-365.273186	-294.159734
83.16	3.166806	0.051086	10.571214	20.776569	-305.895527	-303.289090
83.67	3.116240	0.051094	10.570733	24.111333	-393.766042	-313.882578
84.18	2.985776	0.051079	10.571479	20.878485	-302.139458	-297.468227
84.69	2.714825	0.051078	10.572162	24.094664	-360.421105	-282.440711
85.20	2.266740	0.051061	10.572791	21.305919	-281.715685	-268.600054
85.71	1.725839	0.051065	10.572466	24.480154	-362.273029	-275.742464
86.22	1.232388	0.051076	10.571683	21.521870	-312.243469	-292.978677
86.73	0.856202	0.051062	10.571023	24.391171	-393.518378	-307.501492
87.24	0.592933	0.051047	10.571052	20.944979	-313.521058	-306.865073
87.75	0.421145	0.050997	10.571092	23.577798	-373.203819	-305.983847
88.26	0.313822	0.050932	10.571085	19.728196	-284.732544	-306.122378
88.77	0.007818	0.050879	10.571131	22.543758	-348.495617	-305.120607
89.28	0.007818	0.050909	10.571292	19.753449	-280.545693	-301.574001
89.79	0.007818	0.051042	10.571382	24.219829	-381.290242	-299.599432
90.30	0.008237	0.051184	10.571707	22.228366	-327.948960	-292.446593
90.81	0.010859	0.051247	10.571671	25.677773	-408.193990	-293.248687
91.32	0.010990	0.051212	10.571634	22.194376	-328.842909	-294.045704
91.83	0.013844	0.051199	10.572125	25.603808	-395.999476	-283.240449
92.34	0.015839	0.051200	10.572140	22.471304	-323.557756	-282.923226
92.85	0.016863	0.051214	10.572375	26.005808	-399.489051	-277.741826
93.36	0.019514	0.051222	10.572766	23.268272	-327.473492	-269.158192
93.87	0.021571	0.051222	10.572953	26.365028	-394.427632	-265.025756
94.38	0.022076	0.051216	10.571972	23.253509	-345.430891	-286.612023
94.89	0.022076	0.051182	10.572069	25.990455	-406.195294	-284.476068
95.40	0.022076	0.051111	10.572746	22.031758	-299.451885	-269.580318
95.91	0.022076	0.051055	10.572440	24.666135	-367.159793	-276.320094
96.42	0.022076	0.051025	10.571961	21.551253	-306.510248	-286.864525
96.93	0.022076	0.051049	10.572171	24.931322	-379.465218	-282.235158
97.44	0.022076	0.051070	10.571747	22.283146	-328.276216	-291.555863
97.95	0.022076	0.051075	10.571528	25.570793	-409.012142	-296.378251
98.46	0.022076	0.051039	10.569710	22.653393	-383.779746	-336.370880
98.97	0.022076	0.050972	10.565609	25.128858	-535.366240	-426.612335
99.48	0.021571	0.050943	10.561936	21.770766	-542.768757	-507.412521
99.99	0.020819	0.050976	10.557484	24.505213	-708.398098	-605.362664
100.50	0.019514	0.051053	10.549930	21.606387	-815.872661	-771.537264
101.01	0.018466	0.051134	10.542046	25.046986	-1076.896499	-944.978603
101.52	0.016863	0.051161	10.534653	22.309349	-1184.401745	-1107.642995
102.03	0.015839	0.051109	10.529006	26.114526	-1402.226477	-1231.870857
102.54	0.015634	0.050981	10.525732	23.950903	-1427.923228	-1303.893202
103.06	0.013844	0.050854	10.522569	27.817131	-1589.873833	-1373.481868
103.57	0.012600	0.050732	10.519979	26.127417	-1610.720553	-1430.471351
104.08	0.010990	0.050649	10.518707	30.656959	-1744.310941	-1458.441655
104.59	0.010859	0.050563	10.517877	28.152451	-1705.802973	-1476.704103
105.10	0.010451	0.050441	10.518367	31.713679	-1776.479369	-1465.923210
105.61	0.010417	0.050293	10.518061	28.070594	-1699.677159	-1472.658129
106.12	0.010172	0.050129	10.516277	31.068014	-1809.822684	-1511.907453
106.63	0.009807	0.049999	10.516852	22.841439	-1607.194513	-1499.263215
107.14	0.009707	0.049928	10.519079	-6.998398	-868.926931	-1450.266140
107.65	0.009702	0.049907	10.518744	-188.497363	3301.392880	-1457.634371
108.16	0.008621	0.049908	10.518993	-303.370338	5951.481039	-1452.147915
108.67	0.008331	0.049907	10.518841	-327.678569	6507.544250	-1455.490356
109.18	0.008237	0.050031	10.516887	-334.220003	6613.047736	-1498.490554
109.69	0.008237	0.050707	10.517209	-336.487984	6672.677471	-1491.411076
110.20	0.008237	0.052827	10.517377	-337.312453	6695.547522	-1487.699378
110.71	0.008237	0.057859	10.517485	-337.573270	6704.042895	-1485.322753
111.22	0.007750	0.067385	10.519492	-337.573846	6750.337987	-1441.174289
111.73	0.007701	0.081719	10.520621	-337.436947	6773.214265	-1416.346375
112.24	0.007000	0.099005	10.520804	-337.233382	6772.762903	-1412.306939
112.75	0.006381	0.115543	10.517642	-337.025020	6695.040676	-1481.871235
113.26	0.006032	0.127535	10.512804	-336.875831	6580.011546	-1588.322130
113.77	0.005285	0.132561	10.511771	-336.830105	6555.145494	-1611.037906
114.28	0.005285	0.130265	10.497394	-336.886542	6224.874313	-1927.324543
114.79	0.005285	0.121859	10.487153	-337.019266	5991.727719	-2152.638690
115.30	0.005237	0.109227	10.482187	-337.202695	5881.422353	-2261.887384
115.81	0.005205	0.094171	10.482170	-337.414517	5885.909812	-2262.258083
116.32	0.005126	0.078249	10.482340	-337.634351	5894.885260	-2258.523596
116.83	0.004765	0.062670	10.484045	-337.847042	5939.108410	-2221.009305
117.34	0.004723	0.048387	10.484892	-338.039182	5963.068197	-2202.373044
117.85	0.004350	0.035995	10.484890	-338.200440	5966.738952	-2202.412496
118.36	0.004316	0.025785	10.484868	-338.326509	5969.133232	-2202.896880
118.87	0.004168	0.017744	10.481899	-338.417327	5902.749182	-2268.215185
119.38	0.004168	0.011665	10.482502	-338.477441	5918.038203	-2254.950929
119.89	0.004168	0.007191	10.483043	-338.519804	5931.487922	-2243.051413
120.40	0.004168	0.003990	10.487851	-338.559961	6043.286452	-2137.288012
120.91	0.004168	0.001710	10.487510	-338.613634	6036.661930	-2144.785753
121.42	0.004168	0.000101	10.487063	-338.692666	6028.182562	-2154.609708
121.93	0.003747	-0.001083	10.489752	-338.811211	6092.933991	-2095.446063
122.44	0.003741	-0.001940	10.487394	-338.967358	6042.128108	-2147.338813
122.95	0.003288	-0.002586	10.489891	-353.006258	6422.895768	-2092.396761
123.46	0.002950	-0.003071	10.488272	-355.687328	6447.277177	-2128.011684
123.97	0.002693	-0.003431	10.488386	-357.680155	6495.777047	-2125.507033
124.48	0.002665	-0.003682	10.488595	-358.035709	6508.791698	-2120.899743
124.99	0.002162	-0.003863	10.483023	-354.085241	6289.332728	-2243.496148
125.50	0.001956	-0.003959	10.483669	-354.278576	6308.673185	-2229.292557
126.01	0.001914	-0.003978	10.484292	-351.128024	6250.530808	-2215.573249
126.52	0.001691	-0.003922	10.483841	-349.409690	6200.559743	-2225.508742
127.03	0.001408	-0.003811	10.482486	-348.473860	6147.777086	-2255.308905
127.54	0.001352	-0.003666	10.484831	-346.824231	6163.875632	-2203.728921
128.05	0.001340	-0.003534	10.484881	-345.786392	6141.143972	-2202.623320
128.56	0.001125	-0.003427	10.484880	-345.414457	6132.568230	-2202.636599
129.08	0.000902	-0.003376	10.482074	-345.313550	6065.526122	-2264.372626
129.59	0.000716	-0.003370	10.482315	-345.302646	6070.824008	-2259.079506
130.10	0.000605	-0.003420	10.482569	-345.399793	6078.917713	-2253.492094
130.61	0.000772	-0.003503	10.484897	-345.562505	6136.356722	-2202.273662
131.12	0.001047	-0.003642	10.484913	-345.835471	6143.012682	-2201.918454
131.63	0.001561	-0.003808	10.484916	-346.161134	6150.573351	-2201.857386
132.14	0.002021	-0.004019	10.482225	-346.574183	6098.032567	-2261.046251
132.65	0.002226	-0.004247	10.484683	-347.020230	6164.992126	-2206.967759
133.16	0.003045	-0.004500	10.484368	-347.516506	6169.145921	-2213.902947
133.67	0.002930	-0.004731	10.483926	-348.185450	6174.345289	-2223.632277
134.18	0.003272	-0.004935	10.480108	-348.951835	6103.932332	-2307.628282
134.69	0.003239	-0.005091	10.480096	-349.983352	6127.403862	-2307.889301
135.20	0.003165	-0.005198	10.480097	-350.874998	6147.949670	-2307.869836
135.71	0.002687	-0.005222	10.480087	-352.092586	6175.762433	-2308.075580
136.22	0.002597	-0.005187	10.480091	-352.862858	6193.575993	-2307.997210
136.73	0.001982	-0.005069	10.480084	-352.721316	6190.152301	-2308.155027
137.24	0.001711	-0.004898	10.480091	-354.001548	6219.796242	-2307.989569
137.75	0.001378	-0.004685	10.480095	-354.781958	6237.835177	-2307.918843
138.26	0.001001	-0.004455	10.480083	-356.231083	6270.934053	-2308.166359
138.77	0.000916	-0.004230	10.480094	-355.544680	6255.373322	-2307.937387
139.28	0.000619	-0.004044	10.480102	-355.435205	6253.034868	-2307.764140
139.79	0.000810	-0.003902	10.480111	-354.901402	6240.973570	-2307.547922
140.30	0.000789	-0.003814	10.480082	-354.917656	6240.666606	-2308.197653
140.81	0.000950	-0.003789	10.480069	-355.409818	6251.699002	-2308.480965
141.32	0.001273	-0.003825	10.480063	-355.744734	6259.274879	-2308.608574
141.83	0.001334	-0.003925	10.480063	-356.197193	6269.686949	-2308.611792
142.34	0.001636	-0.004064	10.480065	-359.090893	6336.343651	-2308.569145
142.85	0.001745	-0.004229	10.480065	-360.653712	6372.315892	-2308.572319
143.36	0.001887	-0.004380	10.480078	-361.698275	6396.663060	-2308.284535
143.87	0.001835	-0.004495	10.480090	-362.301511	6410.826154	-2308.020480
144.38	0.001895	-0.004560	10.480083	-362.644250	6418.553378	-2308.175497
144.89	0.001699	-0.004567	10.480083	-362.682369	6419.430459	-2308.175898
145.40	0.001624	-0.004541	10.480099	-364.041296	6451.090710	-2307.815097
145.91	0.001427	-0.004471	10.480095	-363.810244	6445.668048	-2307.914235
146.42	0.001235	-0.004394	10.480069	-365.848913	6492.008619	-2308.475981
146.93	0.001055	-0.004267	10.480068	-367.619616	6532.742839	-2308.501518
147.44	0.000901	-0.004211	10.480096	-368.896120	6562.766652	-2307.891848
147.95	0.000815	-0.004079	10.480103	-372.076273	6636.147310	-2307.725260
148.46	0.000751	-0.004042	10.480096	-371.779432	6629.148238	-2307.883523
148.97	0.000739	-0.003949	10.480091	-371.015130	6611.428674	-2308.003309
149.48	0.000799	-0.003952	10.480098	-371.337357	6619.017911	-2307.839561
149.99	0.000857	-0.003925	10.480103	-371.319502	6618.707629	-2307.743454
150.50	0.000946	-0.003974	10.480083	-372.233235	6639.284346	-2308.179500
151.01	0.001028	-0.004011	10.480075	-375.112768	6705.385657	-2308.355540
151.52	0.001086	-0.004042	10.480067	-375.712984	6719.033657	-2308.516529
152.03	0.001122	-0.004090	10.480073	-379.366011	6803.244215	-2308.402894
152.54	0.001113	-0.004054	10.480083	-379.325959	6802.558507	-2308.177512
153.05	0.001098	-0.004092	10.480086	-381.159509	6844.834669	-2308.112196
153.56	0.001017	-0.004018	10.480107	-380.390161	6827.615049	-2307.644296
154.07	0.000944	-0.004057	10.480124	-380.791237	6837.244174	-2307.266075
154.59	0.000841	-0.003975	10.480126	-379.947945	6817.869473	-2307.230216
155.10	0.000737	-0.004024	10.480118	-380.457908	6829.422227	-2307.408044
155.61	0.000648	-0.003955	10.487588	-379.741377	6985.208063	-2143.069147
156.12	0.000587	-0.003987	10.491993	-384.713835	7201.271240	-2046.153450
156.63	0.000543	-0.003904	10.523176	-383.838079	7900.287304	-1360.128134
157.14	0.000550	-0.003896	10.532228	-389.944976	8249.627992	-1160.988994
157.65	0.000561	-0.003819	10.539186	-394.683532	8519.193411	-1007.901079
158.16	0.000611	-0.003800	10.513529	-399.725824	8043.522270	-1572.367698
158.67	0.000666	-0.003763	10.600897	-399.758218	10059.249538	349.733458
159.18	0.000731	-0.003783	10.590772	-414.385538	10162.440953	126.973260
159.69	0.000788	-0.003802	10.580995	-422.793199	10130.517287	-88.099078
160.20	0.000828	-0.003845	10.601807	-425.602829	10675.176911	369.759052
160.71	0.000850	-0.003881	10.598685	-437.943148	10887.243110	301.074333
161.22	0.000856	-0.003919	10.600860	-459.079382	11423.945744	348.916262
161.73	0.000815	-0.003942	10.599996	-464.781616	11535.294136	329.919151
162.24	0.000758	-0.003959	10.599976	-466.430162	11572.775497	329.473108
162.75	0.000678	-0.003964	10.599992	-491.044098	12139.755906	329.831786
163.26	0.000576	-0.003957	10.599989	-528.461249	13001.017386	329.766409
163.77	0.000493	-0.003943	10.599986	-576.965989	14117.495525	329.685928
164.28	0.000400	-0.003916	10.599991	-618.782277	15080.210775	329.799064
164.79	0.000327	-0.003891	10.599991	-556.795862	13653.303681	329.798072
165.30	0.000277	-0.003858	10.599993	-498.038768	12300.791489	329.851517
165.81	0.000254	-0.003847	10.599973	-445.258439	11085.349723	329.415921
166.32	0.000252	-0.003849	10.599979	-421.079248	10528.876147	329.533366
166.83	0.000282	-0.003860	10.599982	-413.693016	10358.932551	329.614381
167.34	0.000333	-0.003871	10.599981	-393.678914	9898.173245	329.574787
167.85	0.000390	-0.003881	10.599965	-395.988706	9950.975944	329.223827
168.36	0.000461	-0.003872	10.599969	-389.888143	9810.651978	329.327694
168.87	0.000511	-0.003867	10.599991	-390.332935	9821.380715	329.794912
169.38	0.000561	-0.003853	10.599989	-391.353298	9844.827258	329.754960
169.89	0.000591	-0.003850	10.599983	-400.649645	10058.693654	329.628730
170.40	0.000600	-0.003842	10.599986	-402.684346	10105.599188	329.693043
170.91	0.000586	-0.003836	10.599984	-422.382597	10559.001984	329.650886
171.42	0.000546	-0.003835	10.599990	-435.622232	10863.900962	329.772132
171.93	0.000492	-0.003835	10.599993	-459.038573	11403.010849	329.842462
172.44	0.000423	-0.003841	10.599990	-504.611355	12452.026721	329.790967
172.95	0.000352	-0.003850	10.599988	-520.524686	12818.285340	329.732956
173.46	0.000280	-0.003847	10.599981	-607.523772	14820.825992	329.591260
173.97	0.000227	-0.003856	10.599978	-544.665657	13373.765233	329.506872
174.48	0.000170	-0.003848	10.599979	-549.698532	13489.656421	329.541348
174.99	0.000145	-0.003849	10.599970	-513.880854	12664.932720	329.338147
175.50	0.000129	-0.003847	10.599975	-469.397331	11641.061948	329.457115
176.01	0.000129	-0.003850	10.599973	-463.556169	11506.558305	329.416967
176.52	0.000151	-0.003863	10.599969	-440.838392	10983.502291	329.321047
177.03	0.000175	-0.003874	10.599975	-434.730000	10843.022411	329.448105
177.54	0.000223	-0.003878	10.599974	-427.601002	10678.889502	329.423495
178.05	0.000265	-0.003886	10.599976	-430.297978	10741.025081	329.473205
178.56	0.000296	-0.003882	10.599977	-427.291014	10671.821078	329.487775
179.07	0.000335	-0.003861	10.599974	-436.955978	10894.250865	329.435911
179.58	0.000351	-0.003829	10.599971	-440.666528	10979.578850	329.352333
180.09	0.000352	-0.003804	10.599972	-453.959542	11285.611495	329.382863
180.61	0.000347	-0.003782	10.599978	-471.174428	11682.029917	329.514160
181.12	0.000324	-0.003769	10.599980	-493.142092	12187.769381	329.563147
181.63	0.000295	-0.003754	10.599980	-519.003247	12783.078635	329.557720
182.14	0.000260	-0.003757	10.599977	-538.197769	13224.873881	329.504227
182.65	0.000211	-0.003761	10.599981	-555.372443	13620.302687	329.574516
183.16	0.000182	-0.003773	10.599982	-559.489740	13715.108023	329.599855
183.67	0.000149	-0.003779	10.593101	-543.377092	13185.507421	178.221824
184.18	0.000132	-0.003792	10.590312	-530.084055	12815.193177	116.873252
184.69	0.000117	-0.003788	10.586770	-511.898141	12314.866950	38.946181
185.20	0.000113	-0.003798	10.588552	-498.522499	12048.052789	78.140750
185.71	0.000115	-0.003792	10.589742	-489.729447	11873.087340	104.323147
186.22	0.000126	-0.003782	10.588779	-484.478780	11730.021176	83.148734
186.73	0.000132	-0.003764	10.588816	-485.003270	11742.944284	83.959106
187.24	0.000153	-0.003758	10.588060	-486.656393	11763.550736	67.315487
187.75	0.000174	-0.003743	10.588552	-497.917127	12034.131047	78.153824
188.26	0.000190	-0.003732	10.588601	-509.645301	12305.232733	79.225191
188.77	0.000207	-0.003703	10.587856	-529.224840	12738.768303	62.838316
189.28	0.000215	-0.003663	10.583724	-553.596810	13204.509711	-28.062160
189.79	0.000217	-0.003600	10.591393	-579.138657	13969.339058	140.650039
190.30	0.000213	-0.003540	10.581316	-599.623051	14208.469697	-81.049996
190.81	0.000200	-0.003476	10.572855	-615.617618	14381.532779	-267.182041
191.32	0.000186	-0.003427	10.571788	-607.972876	14180.930763	-290.669746
191.83	0.000166	-0.003400	10.570839	-600.860390	13995.319494	-311.545267
192.34	0.000140	-0.003404	10.571970	-579.481233	13529.274649	-286.652113
192.85	0.000116	-0.003429	10.572655	-561.261627	13125.649102	-271.596118
193.36	0.000101	-0.003473	10.572275	-544.211523	12724.404349	-279.949647
193.87	0.000084	-0.003526	10.571939	-532.151043	12439.021224	-287.347185
194.38	0.000076	-0.003579	10.570444	-525.594165	12253.610308	-320.231937
194.89	0.000070	-0.003627	10.571223	-523.170130	12215.785251	-303.085107
195.40	0.000071	-0.003657	10.571599	-523.519940	12232.489562	-294.832106
195.91	0.000073	-0.003690	10.572000	-534.482098	12494.100933	-285.992989
196.42	0.000080	-0.003722	10.571320	-550.956919	12857.649908	-300.965267
196.93	0.000087	-0.003739	10.570131	-577.297642	13436.589047	-327.116846
197.44	0.000103	-0.003758	10.570135	-620.689342	14435.551480	-327.021139
197.95	0.000109	-0.003743	10.582518	-666.986409	15786.865303	-54.613341
198.46	0.000122	-0.003734	10.580261	-742.581250	17474.993397	-104.253884
198.97	0.000116	-0.003715	10.575727	-829.969745	19382.075120	-204.005209
199.48	0.000121	-0.003726	10.576190	-919.682148	21457.901006	-193.820293
199.99	0.000108	-0.003732	10.576299	-973.084470	22689.726457	-191.414295
200.50	0.000100	-0.003743	10.572934	-980.549740	22783.967630	-265.443802
201.01	0.000089	-0.003749	10.572644	-913.680820	21237.961210	-271.841428
201.52	0.000073	-0.003752	10.571985	-825.698436	19197.440148	-286.337605
202.03	0.000065	-0.003735	10.571948	-752.975129	17522.518162	-287.154472
202.54	0.000059	-0.003719	10.572308	-687.540112	16024.531794	-279.231966
203.05	0.000051	-0.003696	10.572140	-651.314632	15186.774141	-282.913547
203.56	0.000044	-0.003667	10.572191	-621.619349	14504.361741	-281.804308
204.07	0.000038	-0.003634	10.572430	-604.724324	14120.971024	-276.532090
204.58	0.000032	-0.003601	10.572448	-598.149414	13970.035929	-276.134234
205.09	0.000029	-0.003572	10.572332	-602.136117	14059.120940	-278.697869
205.60	0.000031	-0.003560	10.584704	-620.689602	14771.543699	-6.522156
206.12	0.000031	-0.003551	10.572751	-651.107838	15196.096947	-269.479591
206.63	0.000033	-0.003547	10.571859	-701.711587	16340.417792	-289.092012
207.14	0.000034	-0.003548	10.572053	-773.992576	18008.767971	-284.831364
207.65	0.000038	-0.003559	10.572256	-888.071790	20639.508435	-280.370921
208.16	0.000038	-0.003576	10.572303	-1020.661228	23692.759405	-279.333576
208.67	0.000044	-0.003591	10.572114	-1254.911756	29080.765771	-283.493240
209.18	0.000042	-0.003597	10.572296	-1414.511000	32758.882509	-279.489946
209.69	0.000041	-0.003592	10.572361	-1540.725422	35665.806752	-278.048195
210.20	0.000040	-0.003568	10.572003	-1534.772079	35520.490865	-285.938858
210.71	0.000029	-0.003547	10.571363	-1357.887705	31433.909175	-300.022237
211.22	0.000018	-0.003529	10.572354	-1210.773953	28070.255753	-278.220884
211.73	0.000009	-0.003517	10.572490	-1021.255853	23710.756605	-275.223072
212.24	-0.000001	-0.003518	10.572032	-913.252972	21214.012794	-285.291000
212.75	-0.000003	-0.003531	10.571893	-855.222765	19874.955797	-288.363999
213.26	-0.000010	-0.003553	10.572641	-796.706593	18545.191370	-271.901659
213.77	-0.000018	-0.003568	10.572892	-778.574926	18133.594030	-266.381005
214.28	-0.000027	-0.003568	10.572840	-776.786275	18091.232379	-267.513779
214.79	-0.000025	-0.003576	10.572044	-784.942576	18260.619901	-285.034858
215.30	-0.000036	-0.003571	10.572072	-815.974935	18975.632595	-284.406797
215.81	-0.000031	-0.003570	10.572507	-862.261017	20051.152545	-274.838956
216.32	-0.000031	-0.003545	10.573142	-928.496227	21590.496764	-260.881087
216.83	-0.000022	-0.003524	10.572010	-1059.796303	24586.888248	-285.769768
217.34	-0.000023	-0.003500	10.572021	-1169.699924	27117.065726	-285.546810
217.85	-0.000019	-0.003487	10.572317	-1352.558661	31333.241854	-279.031121
218.36	-0.000020	-0.003478	10.572390	-1480.355192	34276.774505	-277.409274
218.87	-0.000021	-0.003470	10.572433	-1622.593441	37552.038655	-276.466499
219.38	-0.000021	-0.003452	10.570104	-1655.412685	38253.808891	-327.707937
219.89	-0.000022	-0.003438	10.570099	-1636.416903	37816.413603	-327.821349
220.40	-0.000028	-0.003426	10.570100	-1514.036107	34999.269405	-327.802401
220.91	-0.000034	-0.003418	10.572808	-1460.270468	33824.062930	-268.221341
221.42	-0.000047	-0.003415	10.572537	-1306.927140	30287.899957	-274.185183
221.93	-0.000055	-0.003431	10.572258	-1192.382033	27644.664721	-280.334115
222.44	-0.000064	-0.003444	10.572158	-1123.825570	26064.216646	-282.529758
222.95	-0.000067	-0.003467	10.572373	-1063.081214	24670.856065	-277.804369
223.46	-0.000072	-0.003490	10.572615	-1042.089851	24193.244100	-272.460578
223.97	-0.000075	-0.003504	10.572301	-1037.275525	24075.160365	-279.385537
224.48	-0.000077	-0.003506	10.572245	-1049.267911	24349.946225	-280.601538
224.99	-0.000070	-0.003491	10.573247	-1093.604311	25393.664061	-258.557685
225.50	-0.000072	-0.003454	10.572657	-1143.185761	26521.389844	-271.551997
226.01	-0.000062	-0.003417	10.572308	-1230.799076	28530.172860	-279.226674
226.52	-0.000061	-0.003368	10.572168	-1381.852760	32004.158690	-282.296631
227.03	-0.000055	-0.003336	10.571411	-1578.226471	36507.137063	-298.968296
227.54	-0.000052	-0.003306	10.570150	-1756.789218	40588.509263	-326.708940
228.05	-0.000055	-0.003293	10.571748	-2033.834098	47002.859787	-291.536408
228.56	-0.000062	-0.003279	10.571212	-2206.388371	50962.640500	-303.326308
229.07	-0.000063	-0.003278	10.571054	-2361.454567	54528.566591	-306.803011
229.58	-0.000074	-0.003267	10.572203	-2334.013346	53923.379075	-281.524531
230.09	-0.000085	-0.003259	10.572292	-2260.427233	52231.501697	-279.569239
230.60	-0.000095	-0.003251	10.572078	-2088.278502	48263.764865	-284.273830
231.11	-0.000098	-0.003242	10.571773	-1952.471902	45130.489914	-291.002187
231.62	-0.000107	-0.003227	10.572403	-1692.235738	39154.471018	-277.143300
232.14	-0.000109	-0.003217	10.572552	-1617.233995	37431.404381	-273.854385
232.65	-0.000112	-0.003203	10.571552	-1475.435514	34144.176416	-295.866171
233.16	-0.000102	-0.003210	10.572464	-1537.872059	35602.492172	-275.788527
233.67	-0.000098	-0.003226	10.572793	-1496.415073	34655.740417	-268.563758
234.18	-0.000099	-0.003253	10.571760	-1635.991965	37844.939612	-291.279203
234.69	-0.000097	-0.003266	10.570124	-1756.441592	40579.921979	-327.267038
235.20	-0.000089	-0.003272	10.570125	-1929.761411	44569.695190	-327.257243
235.71	-0.000094	-0.003269	10.570126	-2284.952237	52746.094043	-327.230965
236.22	-0.000083	-0.003259	10.570137	-2520.157751	58160.691487	-326.995389
236.73	-0.000082	-0.003256	10.572290	-2739.939039	63269.639810	-279.626122
237.24	-0.000076	-0.003274	10.570132	-3118.705071	71938.939477	-327.097030
237.75	-0.000082	-0.003299	10.570139	-3556.169775	82009.381752	-326.949712
238.26	-0.000086	-0.003324	10.570146	-4119.612202	94979.802314	-326.788845
238.77	-0.000090	-0.003339	10.570146	-4880.810939	112502.346172	-326.779956
239.28	-0.000101	-0.003360	10.572288	-5282.567385	121800.027732	-279.670773
239.79	-0.000112	-0.003364	10.573087	-5069.786989	116920.335506	-262.081044
240.30	-0.000115	-0.003367	10.573031	-4996.641650	115235.250537	-263.325210
240.81	-0.000129	-0.003355	10.573072	-4694.028842	108270.159153	-262.417152
241.32	-0.000125	-0.003334	10.574289	-4594.296638	106002.434021	-235.635239
241.83	-0.000132	-0.003310	10.574828	-4083.526046	94257.084691	-223.792533
242.34	-0.000132	-0.003307	10.573140	-4126.908439	95216.801418	-260.929120
242.85	-0.000130	-0.003303	10.572809	-3614.125292	83405.082546	-268.203824
243.36	-0.000125	-0.003315	10.572671	-3764.031897	86852.703322	-271.235333
243.87	-0.000116	-0.003325	10.572384	-3847.349018	88764.021069	-277.544354
244.38	-0.000108	-0.003332	10.571982	-3922.917274	90494.299142	-286.394031
244.89	-0.000104	-0.003330	10.571982	-5333.826505	122972.943341	-286.397519
245.40	-0.000097	-0.003317	10.572239	-8293.595788	191111.745533	-280.744897
245.91	-0.000087	-0.003288	10.572178	-16777.591134	386409.011475	-282.084860
246.42	-0.000087	-0.003250	10.572245	248917.497124	-5729799.480196	-280.605492
246.93	-0.000085	-0.003205	10.572614	43709.431591	-1005971.504601	-272.492758
247.44	-0.000082	-0.003172	10.572904	14025.871229	-322659.413597	-266.115299
247.95	-0.000087	-0.003149	10.572871	7044.430701	-161949.802985	-266.842275
248.46	-0.000086	-0.003147	10.573327	4748.334376	-109083.935056	-256.811046
248.97	-0.000096	-0.003152	10.573238	5102.145670	-117230.591972	-258.758867
249.48	-0.000101	-0.003176	10.572532	3474.850052	-79787.084293	-274.289189
249.99	-0.000109	-0.003185	10.572074	4133.394347	-94957.126207	-284.379145
250.50	-0.000110	-0.003188	10.572119	4157.641435	-95514.233935	-283.375694
251.01	-0.000121	-0.003162	10.572554	5964.612854	-137100.081064	-273.820605
251.52	-0.000118	-0.003136	10.572715	5650.143561	-129857.391600	-270.277883
252.03	-0.000117	-0.003109	10.572608	6674.711841	-153445.058087	-272.619883
252.54	-0.000117	-0.003102	10.572520	6413.687328	-147438.392682	-274.555920
253.05	-0.000116	-0.003115	10.572445	6053.066829	-139138.773591	-276.217097
253.56	-0.000106	-0.003139	10.572916	6048.222534	-139016.386697	-265.845401
254.07	-0.000113	-0.003168	10.574863	5906.781893	-135715.561188	-223.005191
254.58	-0.000100	-0.003197	10.572289	4556.577641	-104693.689941	-279.637344
255.09	-0.000098	-0.003208	10.572170	3741.687644	-85937.955044	-282.264478
255.60	-0.000093	-0.003216	10.572887	2633.232039	-60405.142617	-266.483471
256.11	-0.000092	-0.003199	10.572448	2155.085771	-49408.495465	-276.133522
256.62	-0.000093	-0.003195	10.572317	1804.097198	-41331.880876	-279.016520
257.13	-0.000094	-0.003182	10.572413	1703.488510	-39013.702786	-276.917438
257.65	-0.000089	-0.003184	10.572278	1574.664495	-36051.325748	-279.881908
258.16	-0.000099	-0.003186	10.572242	1496.568983	-34254.418680	-280.668791
258.67	-0.000095	-0.003200	10.572327	1451.059862	-33204.867454	-278.811693
259.18	-0.000103	-0.003207	10.572493	1638.722497	-37520.965285	-275.156496
259.69	-0.000108	-0.003222	10.572231	1585.348765	-36298.370203	-280.927598
260.20	-0.000116	-0.003234	10.572287	1903.499762	-43620.784422	-279.675207
260.71	-0.000120	-0.003251	10.572123	1966.956176	-45085.319414	-283.290548
261.22	-0.000128	-0.003255	10.572169	2233.555864	-51221.300726	-282.286764
261.73	-0.000128	-0.003270	10.572425	2362.011739	-54172.404128	-276.652136
262.24	-0.000136	-0.003265	10.572246	2234.726411	-51246.461047	-280.583784
262.75	-0.000130	-0.003265	10.572517	1926.167504	-44137.284542	-274.616122
263.26	-0.000131	-0.003244	10.573140	1871.077044	-42854.757521	-260.914739
263.77	-0.000132	-0.003231	10.572107	1542.571481	-35316.504677	-283.648996
264.28	-0.000132	-0.003210	10.571468	1293.333233	-29593.861581	-297.705852
264.79	-0.000126	-0.003191	10.572269	1118.284968	-25545.835046	-280.082111
265.30	-0.000130	-0.003164	10.572011	1060.540279	-24222.527925	-285.763456
265.81	-0.000123	-0.003135	10.572139	932.588263	-21274.152804	-282.936579
266.32	-0.000126	-0.003096	10.572491	886.988491	-20216.348532	-275.197414
266.83	-0.000125	-0.003062	10.572900	846.876277	-19283.550638	-266.203574
267.34	-0.000125	-0.003014	10.572615	940.456240	-21444.304440	-272.475563
267.85	-0.000127	-0.002978	10.571812	974.828213	-22254.047557	-290.134301
268.36	-0.000129	-0.002957	10.571784	958.115033	-21869.968639	-290.756996
268.87	-0.000132	-0.002947	10.572138	982.224924	-22416.789418	-282.953422
269.38	-0.000143	-0.002951	10.572175	1101.005076	-25150.234287	-282.158230
269.89	-0.000140	-0.002975	10.572685	1025.178713	-23392.969836	-270.933141
270.40	-0.000147	-0.002995	10.573176	1228.140562	-28053.746228	-260.119737
270.91	-0.000147	-0.003030	10.572895	1267.346396	-28962.732640	-266.302493
271.42	-0.000150	-0.003062	10.572337	1394.051528	-31892.315432	-278.583071
271.93	-0.000151	-0.003100	10.572027	1289.132683	-29484.264470	-285.398677
272.44	-0.000154	-0.003133	10.572349	1239.002519	-28322.867814	-278.323153
272.95	-0.000150	-0.003170	10.572270	1178.083691	-26922.349362	-280.051755
273.46	-0.000154	-0.003195	10.572035	1025.155601	-23407.431086	-285.235313
273.97	-0.000148	-0.003206	10.572119	903.490140	-20604.798369	-283.389100
274.48	-0.000148	-0.003203	10.572829	868.929570	-19792.846218	-267.764467
274.99	-0.000137	-0.003197	10.572631	732.069078	-16646.939564	-272.128634
275.50	-0.000147	-0.003187	10.572182	763.948000	-17391.127113	-281.997419
276.01	-0.000141	-0.003175	10.571677	699.270332	-15913.904626	-293.096406
276.52	-0.000152	-0.003172	10.571673	704.007462	-16023.058411	-293.198167
277.03	-0.000152	-0.003170	10.571860	712.153856	-16206.269453	-289.080950
277.54	-0.000168	-0.003175	10.571787	759.596750	-17300.080460	-290.694790
278.05	-0.000160	-0.003196	10.571696	852.877817	-19449.461833	-292.681874
278.56	-0.000169	-0.003198	10.570166	946.510287	-21640.143535	-326.349269
279.07	-0.000164	-0.003210	10.572106	1001.143579	-22853.036909	-283.665522
279.58	-0.000161	-0.003215	10.572649	1095.917382	-25022.167326	-271.712990
280.09	-0.000161	-0.003225	10.572287	1264.956697	-28921.742033	-279.675724
280.60	-0.000162	-0.003239	10.572303	1273.592584	-29120.167497	-279.323063
281.11	-0.000158	-0.003267	10.572413	1333.536842	-30497.545299	-276.920640
281.62	-0.000156	-0.003278	10.572386	1395.707797	-31929.303803	-277.497166
282.13	-0.000153	-0.003269	10.572312	1278.616861	-29235.628369	-279.135848
282.64	-0.000154	-0.003236	10.572192	1289.839453	-29496.732691	-281.772517
283.15	-0.000150	-0.003206	10.572134	1110.268387	-25364.410443	-283.052912
283.67	-0.000152	-0.003172	10.572146	1025.804054	-23419.791689	-282.787054
284.18	-0.000148	-0.003158	10.572332	914.824772	-20860.805834	-278.703622
284.69	-0.000150	-0.003150	10.572588	900.936937	-20535.200625	-273.064157
285.20	-0.000145	-0.003157	10.572037	787.543148	-17937.619118	-285.183244
285.71	-0.000156	-0.003162	10.571842	820.127160	-18692.197289	-289.480937
286.22	-0.000146	-0.003170	10.572563	830.941203	-18924.506657	-273.621114
286.73	-0.000146	-0.003166	10.573153	830.091329	-18891.317425	-260.623766
287.24	-0.000147	-0.003159	10.572489	843.165868	-19207.621804	-275.249940
287.75	-0.000151	-0.003139	10.572230	942.403297	-21498.009831	-280.950835
288.26	-0.000148	-0.003141	10.571609	864.830728	-19726.629621	-294.604830
288.77	-0.000152	-0.003135	10.572247	1013.418580	-23132.349865	-280.562121
289.28	-0.000148	-0.003138	10.572200	1042.675115	-23806.914280	-281.600909
289.79	-0.000148	-0.003133	10.572545	1116.596745	-25500.615361	-274.017801
290.30	-0.000142	-0.003131	10.572767	1125.403294	-25698.213564	-269.128515
290.81	-0.000144	-0.003114	10.572086	1114.068238	-25452.996550	-284.116372
291.32	-0.000146	-0.003105	10.572138	1088.154586	-24855.274403	-282.972867
291.83	-0.000146	-0.003064	10.572577	1155.130397	-26386.904083	-273.309267
292.34	-0.000140	-0.003024	10.572457	982.380305	-22413.031111	-275.956406
292.85	-0.000143	-0.002959	10.572258	1001.349639	-22854.272028	-280.318937
293.36	-0.000137	-0.002914	10.572786	884.269408	-20146.954209	-268.708992
293.87	-0.000142	-0.002880	10.572282	817.554476	-18622.813572	-279.787919
294.38	-0.000146	-0.002877	10.572125	730.799536	-16629.367117	-283.243523
294.89	-0.000146	-0.002904	10.572831	705.626305	-16033.602443	-267.708700
295.40	-0.000147	-0.002949	10.572894	661.137055	-15008.028545	-266.328782
295.91	-0.000145	-0.002994	10.573277	674.419861	-15304.964158	-257.905764
296.42	-0.000141	-0.003032	10.572756	624.062503	-14157.763446	-269.360694
296.93	-0.000143	-0.003041	10.572690	673.886767	-15306.240252	-270.829014
297.44	-0.000132	-0.003028	10.572986	661.573597	-15015.964876	-264.313451
297.95	-0.000132	-0.003008	10.572688	646.459463	-14674.918809	-270.872624
298.46	-0.000129	-0.002978	10.573723	640.335566	-14510.069958	-248.094485
298.97	-0.000124	-0.002960	10.572880	678.971785	-15418.908148	-266.643781
299.48	-0.000123	-0.002950	10.572190	642.527655	-14595.892608	-281.826006
299.99	-0.000124	-0.002940	10.572017	697.432332	-15863.767947	-285.630621
300.50	-0.000123	-0.002942	10.571056	671.749897	-15294.725989	-306.768107
301.01	-0.000125	-0.002936	10.571999	673.831841	-15320.892025	-286.011519
301.52	-0.000124	-0.002934	10.572214	673.256133	-15302.696658	-281.296601
302.03	-0.000127	-0.002919	10.572066	656.735346	-14925.799751	-284.545559
302.54	-0.000127	-0.002912	10.572181	637.288405	-14475.492045	-282.021728
303.05	-0.000133	-0.002906	10.572068	612.474109	-13906.867938	-284.494729
303.56	-0.000137	-0.002903	10.572069	540.635601	-12253.157927	-284.483148
304.07	-0.000138	-0.002900	10.571684	554.667217	-12585.032942	-292.946218
304.58	-0.000137	-0.002920	10.571086	519.514523	-11789.623013	-306.103482
305.09	-0.000142	-0.002933	10.572001	522.928092	-11847.115668	-285.988941
305.60	-0.000130	-0.002957	10.572283	513.978668	-11634.587743	-279.774016
306.11	-0.000134	-0.002966	10.571977	509.816790	-11545.843606	-286.509414
306.62	-0.000129	-0.002954	10.572030	489.799740	-11083.832494	-285.340434
307.13	-0.000130	-0.002923	10.572122	506.336534	-11462.384356	-283.318643
307.64	-0.000131	-0.002889	10.572471	470.763899	-10635.457822	-275.633371
308.15	-0.000133	-0.002859	10.572763	495.811470	-11205.306025	-269.205663
308.66	-0.000130	-0.002844	10.572752	494.191131	-11168.276412	-269.463242
309.18	-0.000134	-0.002834	10.572397	553.571684	-12543.375220	-277.265044
309.69	-0.000129	-0.002839	10.572046	498.350092	-11280.282877	-284.981951
310.20	-0.000128	-0.002848	10.571943	534.752821	-12120.649773	-287.260387
310.71	-0.000128	-0.002850	10.572872	470.896116	-10629.250766	-266.809131
311.22	-0.000130	-0.002846	10.572422	469.179686	-10600.128816	-276.719906
311.73	-0.000132	-0.002836	10.572392	393.111332	-8849.755825	-277.382396
312.24	-0.000134	-0.002817	10.572819	424.700526	-9567.084681	-267.992543
312.75	-0.000136	-0.002807	10.572609	380.851530	-8562.524406	-272.598578
313.26	-0.000141	-0.002794	10.571322	399.089699	-9012.044275	-300.913783
313.77	-0.000143	-0.002811	10.571884	417.991457	-9434.187090	-288.542403
314.28	-0.000149	-0.002837	10.572639	421.908634	-9506.963096	-271.948208
314.79	-0.000151	-0.002887	10.572656	430.197757	-9697.372834	-271.563759
315.30	-0.000154	-0.002937	10.572446	465.466198	-10514.093663	-276.193426
315.81	-0.000153	-0.002994	10.572609	492.835592	-11140.373874	-272.612576
316.32	-0.000147	-0.003028	10.573853	519.913501	-11734.988772	-245.226613
316.83	-0.000148	-0.003054	10.573200	517.226391	-11688.204231	-259.603694
317.34	-0.000156	-0.003052	10.572369	543.300205	-12307.585427	-277.890927
317.85	-0.000149	-0.003048	10.572581	527.668974	-11942.859836	-273.216799
318.36	-0.000151	-0.003046	10.572962	549.953371	-12447.045581	-264.828676
318.87	-0.000147	-0.003048	10.572883	539.451555	-12207.119145	-266.566487
319.38	-0.000145	-0.003050	10.572742	569.568519	-12903.672523	-269.686873
319.89	-0.000142	-0.003052	10.572683	507.097677	-11466.971965	-270.981190
320.40	-0.000144	-0.003026	10.572293	554.891213	-12576.156071	-279.559884
320.91	-0.000141	-0.002995	10.572231	550.990721	-12487.794466	-280.920525
321.42	-0.000148	-0.002951	10.572432	529.720057	-11993.516063	-276.499184
321.93	-0.000144	-0.002920	10.572039	498.790728	-11290.602993	-285.150630
322.44	-0.000151	-0.002906	10.571706	510.715211	-11572.767252	-292.463972
322.95	-0.000148	-0.002925	10.571624	495.560245	-11225.811649	-294.282633
323.46	-0.000151	-0.002956	10.571521	526.689732	-11944.754970	-296.527338
323.97	-0.000155	-0.002992	10.572054	537.004516	-12169.913350	-284.809155
324.48	-0.000157	-0.003014	10.572315	576.862436	-13081.407443	-279.065137
324.99	-0.000156	-0.003044	10.572195	576.209564	-13069.161798	-281.720084
325.50	-0.000163	-0.003076	10.572042	571.798089	-12971.137498	-285.083894
326.01	-0.000158	-0.003116	10.571668	584.240867	-13266.191927	-293.312211
326.52	-0.000162	-0.003153	10.571710	634.784381	-14428.718649	-292.389145
327.03	-0.000160	-0.003189	10.572086	627.607679	-14254.823221	-284.099512
327.54	-0.000156	-0.003200	10.572291	673.779268	-15312.958325	-279.597945
328.05	-0.000157	-0.003192	10.572386	636.408165	-14450.486326	-277.497457
328.56	-0.000160	-0.003151	10.572573	595.647092	-13507.886251	-273.401289
329.07	-0.000152	-0.003110	10.572213	582.959902	-13224.133492	-281.320624
329.58	-0.000152	-0.003048	10.572736	557.510458	-12626.225600	-269.806605
330.09	-0.000150	-0.003002	10.572563	555.234029	-12577.819873	-273.619253
330.60	-0.000150	-0.002964	10.571966	568.257364	-12891.381997	-286.753952
331.11	-0.000145	-0.002945	10.572590	554.964661	-12570.987878	-273.017109
331.62	-0.000145	-0.002955	10.572888	629.772098	-14286.156609	-266.461037
332.13	-0.000145	-0.002986	10.571678	636.260208	-14463.411491	-293.075766
332.64	-0.000141	-0.003000	10.571575	665.391008	-15136.387784	-295.360608
333.15	-0.000139	-0.003005	10.571926	706.941648	-16084.764968	-287.629842
333.66	-0.000143	-0.002983	10.572198	711.905091	-16192.748303	-281.645585
334.17	-0.000138	-0.002949	10.572031	688.576978	-15659.598404	-285.323158
334.69	-0.000151	-0.002921	10.571785	689.057451	-15676.329088	-290.732134
335.20	-0.000147	-0.002912	10.572305	670.128703	-15228.602182	-279.291374
335.71	-0.000149	-0.002908	10.572433	676.017969	-15361.220588	-276.476892
336.22	-0.000147	-0.002913	10.572267	652.667108	-14827.526643	-280.135010
336.73	-0.000144	-0.002898	10.572336	644.909151	-14647.343437	-278.610970
337.24	-0.000139	-0.002889	10.572039	603.877740	-13709.664068	-285.144905
