Length [m]	OTDR [V]	Brillouin intensity [V]	Fitted Frequency [GHz]	Temperature [”]	Compensated Strain [レュ]	Uncompensated Strain [レュ]
0.51	0.007082	0.074750	10.462431	-116.571398	351.535794	-2696.518505
1.02	0.007147	0.078836	10.443865	-101.492354	-423.770081	-3104.972487
1.53	0.007086	0.082180	10.437661	-79.414355	-1075.089306	-3241.467952
2.04	0.007106	0.085059	10.434598	-57.625918	-1647.279492	-3308.840200
2.55	0.007067	0.087552	10.433995	-41.310550	-2036.764476	-3322.109769
3.06	0.007059	0.089757	10.434884	-22.548674	-2448.164428	-3302.562323
3.57	0.007029	0.091617	10.434540	-11.769528	-2704.212139	-3310.112920
4.08	0.007034	0.093163	10.435063	-1.725437	-2923.367774	-3298.612734
4.59	0.007010	0.094375	10.436204	9.606094	-3157.912259	-3273.521716
5.10	0.007023	0.095300	10.436662	21.910100	-3430.582384	-3263.444778
5.61	0.007017	0.095958	10.436212	27.014522	-3558.450354	-3273.332866
6.12	0.007028	0.096432	10.434742	30.132790	-3664.132067	-3305.670507
6.63	0.007016	0.096733	10.434231	26.785518	-3598.867107	-3316.915227
7.14	0.007025	0.096946	10.434343	24.282424	-3538.675963	-3314.462948
7.65	0.007013	0.097071	10.434197	21.491862	-3477.785052	-3317.655547
8.16	0.007031	0.097154	10.434374	26.011527	-3577.747401	-3313.764770
8.67	0.007024	0.097184	10.434938	30.006655	-3656.722259	-3301.371983
9.18	0.007050	0.097182	10.435010	35.935937	-3791.540103	-3299.776869
9.69	0.007031	0.097131	10.434376	36.629159	-3822.121663	-3313.726600
10.20	0.007044	0.097077	10.434082	37.753726	-3854.781703	-3320.187314
10.71	0.007019	0.096998	10.433522	35.220797	-3809.393441	-3332.510714
11.22	0.007021	0.096968	10.433343	36.385089	-3840.329377	-3336.454470
11.73	0.007005	0.096956	10.433364	37.059307	-3855.372343	-3335.999180
12.24	0.007018	0.096986	10.433331	41.880682	-3967.101403	-3336.707584
12.75	0.007003	0.097029	10.433115	42.816416	-3993.624156	-3341.460403
13.26	0.007020	0.097093	10.432964	43.692277	-4017.273142	-3344.786643
13.77	0.006999	0.097137	10.433733	39.968028	-3913.818182	-3327.879613
14.28	0.007004	0.097181	10.434756	38.636418	-3859.575441	-3305.377419
14.79	0.006986	0.097199	10.434818	35.266653	-3780.555353	-3303.994979
15.30	0.006987	0.097204	10.433621	35.686847	-3817.853832	-3330.347324
15.81	0.006960	0.097195	10.433178	34.171276	-3793.167324	-3340.078504
16.32	0.006942	0.097182	10.433829	35.442676	-3807.436338	-3325.771673
16.83	0.006863	0.097147	10.434337	33.507076	-3751.151763	-3314.584530
17.34	0.006793	0.097106	10.434785	34.066429	-3753.705440	-3304.737905
17.85	0.006666	0.097030	10.434179	33.039379	-3744.037661	-3318.068310
18.36	0.006569	0.096960	10.433910	34.880036	-3792.597854	-3323.971930
18.87	0.006462	0.096860	10.434532	34.967788	-3780.286184	-3310.300873
19.38	0.006407	0.096762	10.435269	36.612167	-3801.130831	-3294.076463
19.89	0.006329	0.096655	10.435964	36.618517	-3785.256986	-3278.794899
20.40	0.006302	0.096560	10.436434	37.539463	-3795.625273	-3268.462598
20.91	0.006248	0.096457	10.436675	36.804786	-3773.144594	-3263.150609
21.42	0.006225	0.096382	10.437618	38.973775	-3801.316196	-3242.395755
21.93	0.006186	0.096298	10.437960	37.271844	-3754.270836	-3234.890914
22.44	0.006186	0.096256	10.437622	38.253911	-3784.671043	-3242.325053
22.95	0.006161	0.096241	10.437450	36.255213	-3742.619711	-3246.100619
23.46	0.006183	0.096259	10.437536	36.127605	-3737.693772	-3244.203815
23.97	0.006172	0.096287	10.437378	34.849620	-3711.929465	-3247.689851
24.48	0.006189	0.096322	10.437371	36.221534	-3743.664225	-3247.836523
24.99	0.006174	0.096339	10.437967	35.323777	-3709.260217	-3234.731814
25.50	0.006187	0.096356	10.438251	37.484375	-3752.442079	-3228.479585
26.02	0.006165	0.096359	10.437572	36.491362	-3745.232373	-3243.407352
26.53	0.006179	0.096391	10.437550	37.189068	-3761.805475	-3243.895900
27.04	0.006161	0.096406	10.437968	36.217958	-3729.824999	-3234.713731
27.55	0.006176	0.096433	10.437977	37.347750	-3755.613603	-3234.505003
28.06	0.006167	0.096420	10.437784	35.855078	-3725.703303	-3238.750357
28.57	0.006179	0.096386	10.437481	38.270576	-3788.285658	-3245.407097
29.08	0.006168	0.096320	10.437424	37.075048	-3762.093569	-3246.674420
29.59	0.006184	0.096265	10.437575	38.275023	-3786.226035	-3243.344764
30.10	0.006161	0.096198	10.437300	37.423599	-3772.973874	-3249.399525
30.61	0.006175	0.096159	10.437353	36.155546	-3742.569498	-3248.241261
31.12	0.006164	0.096140	10.438147	35.344611	-3705.589149	-3230.772480
31.63	0.006185	0.096133	10.438811	36.281401	-3711.840902	-3216.165509
32.14	0.006174	0.096134	10.438813	33.966050	-3658.498926	-3216.124107
32.65	0.006190	0.096134	10.440097	37.479496	-3709.747813	-3187.860447
33.16	0.006172	0.096127	10.441089	33.196208	-3588.277886	-3166.044539
33.67	0.006191	0.096144	10.441860	37.030186	-3658.752254	-3149.081719
34.18	0.006171	0.096124	10.442423	32.554636	-3542.741202	-3136.694873
34.69	0.006183	0.096162	10.441983	36.381443	-3640.974323	-3146.368731
35.20	0.006180	0.096141	10.441619	32.849019	-3568.067620	-3154.389626
35.71	0.006198	0.096188	10.441685	36.264903	-3645.168260	-3152.928393
36.22	0.006184	0.096145	10.441799	35.027868	-3614.073167	-3150.430148
36.73	0.006198	0.096151	10.441896	37.092652	-3659.360905	-3148.290645
37.24	0.006178	0.096090	10.441940	37.320045	-3663.572529	-3147.314919
37.75	0.006191	0.096084	10.442387	38.873960	-3689.039229	-3137.485974
38.26	0.006169	0.096038	10.443266	38.451532	-3659.039229	-3118.144743
38.77	0.006188	0.096034	10.442545	39.693829	-3704.274929	-3134.016249
39.28	0.006176	0.096009	10.441538	38.886477	-3708.903391	-3156.159651
39.79	0.006197	0.096000	10.441675	39.174495	-3712.383116	-3153.154520
40.30	0.006184	0.095974	10.441895	38.514606	-3692.122545	-3148.318082
40.81	0.006193	0.095947	10.442169	39.051829	-3698.162244	-3142.282721
41.32	0.006178	0.095902	10.443071	38.363797	-3661.508948	-3122.427150
41.83	0.006189	0.095858	10.443472	38.854906	-3663.581611	-3113.620220
42.34	0.006170	0.095820	10.443982	37.748806	-3626.361888	-3102.404512
42.85	0.006189	0.095791	10.444601	37.986332	-3617.545077	-3088.778395
43.36	0.006177	0.095764	10.444389	36.496076	-3588.119720	-3093.433281
43.87	0.006185	0.095748	10.444046	37.479248	-3618.671253	-3100.987482
44.38	0.006171	0.095730	10.444179	36.672561	-3597.042731	-3098.069619
44.89	0.006177	0.095718	10.444422	37.988083	-3621.722349	-3092.724655
45.40	0.006156	0.095703	10.445711	37.831398	-3588.379186	-3064.359023
45.91	0.006169	0.095690	10.446376	38.619842	-3591.196219	-3049.733100
46.42	0.006157	0.095668	10.446030	37.856837	-3581.611270	-3057.344462
46.93	0.006177	0.095632	10.445980	38.498613	-3597.534152	-3058.440908
47.44	0.006158	0.095594	10.446384	37.436824	-3563.780572	-3049.558557
47.95	0.006171	0.095560	10.446197	38.457135	-3591.571179	-3053.663605
48.46	0.006150	0.095524	10.445793	38.046151	-3591.423114	-3062.546980
48.97	0.006160	0.095495	10.448645	38.898081	-3545.272351	-2999.816365
49.48	0.006145	0.095443	10.467134	38.626522	-3112.591716	-2593.043164
49.99	0.006162	0.095311	10.517615	39.568910	-1970.046780	-1482.470249
50.50	0.006147	0.094994	10.555053	39.276148	-1099.861891	-658.825090
51.01	0.006163	0.094407	10.564051	41.240512	-937.564162	-460.873825
51.53	0.006148	0.093423	10.566339	41.151065	-882.740388	-410.541279
52.04	0.006167	0.092081	10.567192	42.846150	-902.083436	-391.771071
52.55	0.006149	0.090473	10.567841	41.731428	-861.459648	-377.497544
53.06	0.006165	0.088780	10.568712	40.772824	-819.299634	-358.330452
53.57	0.006151	0.087169	10.568930	37.092918	-729.561861	-353.534609
54.08	0.006168	0.085745	10.568808	35.511966	-695.978225	-356.214450
54.59	0.006156	0.084561	10.569237	31.929620	-603.632412	-346.788490
55.10	0.006169	0.083627	10.569694	30.990523	-571.472848	-336.732560
55.61	0.006151	0.082891	10.569764	29.094777	-526.207156	-335.181241
56.12	0.006159	0.082328	10.569716	28.924067	-523.394515	-336.246801
56.63	0.006144	0.081899	10.569815	27.021597	-477.314281	-334.066150
57.14	0.006150	0.081582	10.569968	27.096899	-475.514523	-330.695829
57.65	0.006140	0.081365	10.569561	24.813725	-432.359745	-339.665502
58.16	0.006149	0.081242	10.569753	24.910960	-430.156768	-335.428939
58.67	0.006139	0.081164	10.569933	23.533779	-394.307326	-331.472888
59.18	0.006154	0.081130	10.570231	24.307866	-405.250586	-324.913871
59.69	0.006137	0.081091	10.570932	23.363102	-367.345741	-309.501912
60.20	0.006153	0.081045	10.570676	24.413945	-397.426015	-315.120637
60.71	0.006137	0.080981	10.570513	23.318388	-375.962337	-318.703178
61.22	0.006156	0.080911	10.570022	24.069123	-404.578246	-329.514988
61.73	0.006140	0.080839	10.570308	22.851764	-369.958373	-323.222373
62.24	0.006160	0.080799	10.571075	23.185995	-359.956708	-306.342507
62.75	0.006139	0.080763	10.570552	22.357246	-352.956852	-317.863440
63.26	0.006152	0.080756	10.570469	22.945051	-368.388142	-319.676074
63.77	0.006133	0.080752	10.570586	22.000848	-343.968271	-317.115167
64.28	0.006174	0.080763	10.570428	23.395364	-379.698483	-320.576842
64.79	0.006261	0.080777	10.570695	22.631988	-355.984462	-314.718550
65.30	0.006555	0.080794	10.570776	23.333697	-370.266374	-312.933611
65.81	0.007151	0.080801	10.570464	22.149213	-350.186503	-319.788898
66.32	0.008210	0.080805	10.570569	22.836159	-363.571669	-317.472720
66.83	0.009610	0.080800	10.571240	21.883400	-326.163713	-302.710306
67.34	0.011097	0.080806	10.571497	22.941413	-344.601933	-297.066177
67.85	0.012192	0.080795	10.571528	21.788797	-317.345410	-296.375832
68.36	0.012669	0.080795	10.571791	22.945534	-337.924693	-290.606232
68.87	0.012443	0.080785	10.571957	22.201341	-316.958897	-286.948258
69.38	0.011744	0.080762	10.571989	22.290376	-318.268897	-286.242794
69.89	0.010766	0.080725	10.571825	21.090441	-294.423230	-289.845153
70.40	0.009802	0.080693	10.571499	21.729471	-316.656187	-297.021088
70.91	0.008933	0.080670	10.571511	20.811320	-295.246607	-296.759664
71.42	0.008284	0.080656	10.571600	21.900325	-318.264866	-294.803920
71.93	0.007775	0.080641	10.571548	21.106201	-301.171374	-295.936158
72.44	0.007433	0.080642	10.571634	22.392429	-328.811899	-294.058889
72.95	0.007162	0.080639	10.571510	21.276208	-305.958003	-296.769055
73.46	0.006988	0.080656	10.571792	22.031765	-316.867611	-290.584836
73.97	0.006830	0.080665	10.572340	20.880851	-277.714641	-278.509024
74.48	0.006741	0.080678	10.572357	21.681389	-295.770546	-278.153983
74.99	0.006645	0.080669	10.572496	21.090393	-278.941507	-275.078115
75.50	0.006603	0.080663	10.572679	21.940607	-294.311593	-271.070232
76.01	0.006545	0.080655	10.572304	21.265792	-287.411884	-279.306523
76.52	0.006525	0.080669	10.571788	22.441944	-326.382963	-290.654623
77.03	0.006488	0.080685	10.572035	21.423605	-297.258234	-285.233668
77.55	0.006484	0.080706	10.572236	22.204139	-310.596874	-280.818060
78.06	0.006465	0.080730	10.571907	21.845355	-309.907581	-288.038927
78.57	0.006470	0.080743	10.571970	22.696084	-328.040185	-286.654905
79.08	0.006446	0.080748	10.572487	22.373168	-308.677211	-275.275231
79.59	0.006455	0.080756	10.572640	23.666108	-334.926254	-271.923228
80.10	0.006434	0.080748	10.571895	22.838864	-333.053764	-288.302137
80.61	0.006445	0.080737	10.571772	23.541901	-352.079641	-291.013340
81.12	0.006441	0.080715	10.571579	22.249995	-326.785510	-295.253549
81.63	0.006460	0.080704	10.571527	23.302273	-352.214587	-296.403958
82.14	0.006456	0.080697	10.571991	22.532320	-323.802566	-286.208647
82.65	0.006479	0.080710	10.572199	23.780165	-347.712644	-281.615706
83.16	0.006472	0.080734	10.572075	23.308850	-339.733133	-284.353409
83.67	0.006492	0.080777	10.572123	24.421042	-364.216771	-283.286337
84.18	0.006475	0.080811	10.572078	23.584505	-346.009198	-284.287196
84.69	0.006484	0.080847	10.572240	24.594954	-365.525472	-280.715841
85.20	0.006468	0.080865	10.572383	23.739626	-342.541183	-277.572795
85.71	0.006485	0.080872	10.572679	24.625607	-356.114345	-271.065425
86.22	0.006484	0.080861	10.572445	23.502266	-335.642839	-276.204517
86.73	0.006463	0.080796	10.572251	24.232808	-356.937065	-280.475522
87.24	0.006421	0.080732	10.572170	23.019026	-330.866043	-282.259158
87.75	0.006372	0.080639	10.572397	23.420274	-334.875179	-277.272672
88.26	0.006286	0.080539	10.572534	21.989273	-298.765958	-274.250635
88.77	0.006238	0.080458	10.572501	22.316118	-307.048501	-274.974337
89.28	0.006259	0.080474	10.572592	21.637173	-289.313476	-272.965466
89.79	0.006291	0.080583	10.572437	23.197658	-328.819526	-276.384475
90.30	0.006317	0.080691	10.572379	23.216911	-330.604202	-277.664128
90.81	0.006340	0.080715	10.572760	24.180021	-343.982848	-269.277553
91.32	0.006356	0.080613	10.573327	23.348194	-311.750931	-256.797105
91.83	0.006384	0.080510	10.573292	23.524776	-316.637406	-257.580840
92.34	0.006384	0.080416	10.572736	22.536014	-306.684984	-269.798986
92.85	0.006385	0.080358	10.572883	22.868468	-310.949435	-266.566650
93.36	0.006385	0.080344	10.572931	21.919071	-287.998806	-265.521321
93.87	0.006391	0.080379	10.572768	23.094527	-318.817692	-269.108279
94.38	0.006402	0.080422	10.572552	22.365526	-307.013204	-273.855741
94.89	0.006410	0.080438	10.572506	23.356638	-330.893314	-274.871709
95.40	0.006419	0.080410	10.572901	22.120564	-293.336602	-266.188574
95.91	0.006423	0.080383	10.572594	22.931859	-319.083180	-272.933493
96.42	0.006423	0.080383	10.572424	21.777801	-296.431644	-276.667549
96.93	0.006423	0.080410	10.572987	23.084410	-313.527780	-264.284378
97.44	0.006423	0.080426	10.572950	22.430552	-299.334152	-265.102787
97.95	0.006423	0.080427	10.572338	23.523794	-338.601736	-278.554305
98.46	0.006423	0.080389	10.569240	20.937288	-350.525223	-346.724133
98.97	0.006423	0.080332	10.562965	15.717527	-375.076963	-484.762647
99.48	0.006423	0.080299	10.556411	-0.296663	-157.587977	-628.947501
99.99	0.006423	0.080345	10.548765	-28.326088	311.288560	-797.169837
100.50	0.006423	0.080474	10.536949	-67.888501	949.487007	-1057.123053
101.01	0.006419	0.080696	10.527804	-106.667708	1631.264170	-1258.308240
101.52	0.006412	0.080961	10.523945	-137.090158	2242.583500	-1343.201076
102.03	0.006408	0.081252	10.522749	-154.507860	2615.934269	-1369.527698
102.54	0.006407	0.081538	10.523496	-160.816680	2778.385945	-1353.096863
103.06	0.006407	0.081833	10.524890	-156.933878	2721.164131	-1322.420277
103.57	0.006405	0.082104	10.526046	-145.491179	2484.424342	-1296.982262
104.08	0.006402	0.082360	10.526920	-127.300803	2085.843843	-1277.755602
104.59	0.006401	0.082561	10.527906	-105.965805	1617.457066	-1256.066128
105.10	0.006401	0.082706	10.530892	-82.899792	1155.344984	-1190.380564
105.61	0.006401	0.082788	10.535459	-62.600541	793.389724	-1089.909013
106.12	0.006401	0.082826	10.538334	-44.384643	440.384907	-1026.647055
106.63	0.006399	0.082862	10.539805	-30.740181	160.223909	-994.281201
107.14	0.006401	0.082938	10.540261	-18.816478	-103.757915	-984.267360
107.65	0.006399	0.083026	10.539942	-10.486136	-302.868554	-991.277613
108.16	0.006389	0.083136	10.540440	-2.432810	-476.770218	-980.323787
108.67	0.006388	0.083215	10.540112	2.278306	-592.787696	-987.544086
109.18	0.006388	0.083269	10.539970	7.447857	-715.055408	-990.659945
109.69	0.006388	0.083292	10.540514	9.751019	-755.517741	-978.683028
110.20	0.006388	0.083338	10.540413	13.039261	-833.549818	-980.913128
110.71	0.006388	0.083412	10.540390	14.428402	-866.066319	-981.427242
111.22	0.006388	0.083539	10.540169	16.978435	-929.850284	-986.276013
111.73	0.006385	0.083689	10.540344	17.834624	-945.528060	-982.430441
112.24	0.006383	0.083821	10.540511	19.436458	-978.550692	-978.756912
112.75	0.006383	0.083895	10.540261	19.507719	-985.946534	-984.247057
113.26	0.006383	0.083931	10.540164	20.983540	-1022.171554	-986.395373
113.77	0.006383	0.083921	10.540179	20.443750	-1009.392822	-986.058683
114.28	0.006383	0.083902	10.540196	21.501738	-1033.368975	-985.697748
114.79	0.006383	0.083867	10.539775	20.746861	-1025.686745	-994.945657
115.30	0.006383	0.083836	10.540024	20.819122	-1021.608224	-989.468384
115.81	0.006383	0.083789	10.540023	19.571810	-992.932483	-989.503646
116.32	0.006383	0.083747	10.540123	19.613398	-991.584835	-987.304904
116.83	0.006382	0.083704	10.540153	18.157870	-957.365177	-986.623902
117.34	0.006382	0.083679	10.540312	18.430341	-959.981376	-983.136437
117.85	0.006382	0.083650	10.540507	17.249883	-928.314679	-978.850582
118.36	0.006383	0.083627	10.540154	18.049027	-954.857870	-986.622210
118.87	0.006382	0.083582	10.540034	17.394091	-942.546253	-989.259539
119.38	0.006382	0.083551	10.540414	18.106245	-950.174700	-980.898475
119.89	0.006382	0.083503	10.540701	16.961942	-917.203154	-974.574011
120.40	0.006382	0.083477	10.540548	16.946703	-920.381452	-977.940424
120.91	0.006382	0.083435	10.540266	17.889279	-948.577464	-984.139129
121.42	0.006382	0.083406	10.540495	20.089149	-993.946499	-979.110889
121.93	0.006382	0.083351	10.540591	22.619210	-1049.978594	-977.003679
122.44	0.006382	0.083304	10.540845	27.366362	-1153.385540	-971.403408
122.95	0.006381	0.083256	10.541027	29.948847	-1208.632824	-967.396410
123.46	0.006381	0.083236	10.541025	28.617971	-1178.058282	-967.455330
123.97	0.006379	0.083239	10.540915	26.756333	-1137.734969	-969.869617
124.48	0.006379	0.083276	10.541002	25.432689	-1105.253492	-967.950705
124.99	0.006377	0.083312	10.541207	24.272013	-1073.807982	-963.441448
125.50	0.006376	0.083353	10.542586	23.571049	-1025.879713	-933.114599
126.01	0.006375	0.083375	10.549750	22.048439	-825.587889	-775.489557
126.52	0.006372	0.083380	10.568476	22.071451	-394.239679	-363.518983
127.03	0.006368	0.083348	10.581931	21.858331	-79.024960	-67.513882
127.54	0.006365	0.083287	10.574916	21.596178	-234.789895	-221.855339
128.05	0.006364	0.083169	10.570564	20.793028	-316.656632	-317.584460
128.56	0.006364	0.083016	10.581844	19.496094	-26.648939	-69.423464
129.08	0.006364	0.082827	10.587063	18.253447	122.308923	45.381457
129.59	0.006384	0.082628	10.576282	16.849418	-93.998594	-191.785870
130.10	0.006360	0.082446	10.571841	15.865732	-173.777825	-289.488008
130.61	0.006373	0.082300	10.582660	15.240269	90.130132	-51.479143
131.12	0.006356	0.082208	10.586367	14.841478	184.814868	30.084225
131.63	0.006378	0.082172	10.575875	14.686524	-53.606040	-200.749264
132.14	0.006371	0.082145	10.573969	14.573134	-94.964717	-242.691395
132.65	0.006389	0.082138	10.585801	14.542053	178.646983	17.625702
133.16	0.006375	0.082111	10.587073	14.426777	210.631631	45.604737
133.67	0.006385	0.082090	10.575182	14.335328	-61.500300	-215.991401
134.18	0.006367	0.082059	10.574939	14.202974	-64.073398	-221.352177
134.69	0.006387	0.082044	10.586399	14.136262	201.772695	30.774864
135.20	0.006376	0.082025	10.585792	14.256164	185.023238	17.430327
135.71	0.006402	0.082015	10.574241	14.644520	-90.326491	-236.699429
136.22	0.006409	0.081980	10.576309	14.673576	-43.293896	-191.196766
136.73	0.006683	0.081956	10.587139	14.633616	207.388517	47.053006
137.24	0.008708	0.081923	10.582967	14.491607	114.445284	-44.724343
137.75	0.018132	0.081933	10.572002	14.645375	-141.980335	-285.953508
138.26	0.047128	0.081958	10.576070	14.934215	-54.816563	-196.465046
138.77	0.114860	0.082019	10.587261	15.232391	196.417379	49.735820
139.28	0.241823	0.082087	10.582101	15.529198	70.595684	-63.768681
139.79	0.430412	0.082158	10.571283	15.832704	-185.887529	-301.764766
140.30	0.646794	0.082192	10.576833	15.981683	-61.335016	-179.682119
140.81	0.830692	0.082209	10.586144	16.175850	148.934946	25.159097
141.32	0.930035	0.082202	10.579078	16.022911	-10.500142	-130.285166
141.83	0.928325	0.082188	10.570998	16.083224	-198.237667	-308.044572
142.34	0.843238	0.082160	10.579890	16.534518	-3.555491	-112.426484
142.85	0.709173	0.082136	10.588812	16.494373	203.136169	83.856219
143.36	0.560866	0.082093	10.580264	16.309334	10.253156	-104.199051
143.87	0.424114	0.082030	10.572391	16.036558	-165.036629	-277.398654
144.38	0.311656	0.081929	10.581287	15.600006	50.175190	-81.693060
144.89	0.225372	0.081818	10.587011	15.121051	193.210341	44.231730
145.40	0.161473	0.081683	10.576146	14.536278	-43.895954	-194.785936
145.91	0.114947	0.081552	10.571730	14.096853	-135.629547	-291.940229
146.42	0.081167	0.081424	10.583479	13.661745	145.361469	-33.455811
146.93	0.056620	0.081328	10.588486	13.268005	269.903223	76.699221
147.44	0.038899	0.081252	10.577165	12.940836	16.329308	-172.370390
147.95	0.026224	0.081211	10.572694	12.771218	-82.882185	-270.733294
148.46	0.017231	0.081194	10.582580	12.699102	146.783449	-53.237644
148.97	0.010874	0.081216	10.584511	12.795401	189.102544	-10.754653
149.48	0.006191	0.081242	10.573643	12.903936	-64.042981	-249.848181
149.99	0.002581	0.081269	10.572461	13.024810	-94.086284	-275.852418
150.50	-0.000346	0.081260	10.585152	12.983942	199.531899	3.334038
151.01	-0.002769	0.081244	10.585907	12.945940	217.827454	19.951794
151.52	-0.004716	0.081209	10.572962	12.791103	-77.157572	-264.835905
152.03	-0.006205	0.081186	10.571817	12.693992	-101.323630	-290.020466
152.54	-0.007189	0.081188	10.582524	12.673398	146.080282	-54.472826
153.05	-0.007619	0.081218	10.580928	12.832321	105.610241	-89.587675
153.56	-0.007509	0.081269	10.564472	13.082838	-279.679230	-451.616262
154.07	-0.006860	0.081333	10.550627	13.360715	-605.386773	-756.208577
154.59	-0.005745	0.081386	10.544849	13.588378	-743.891600	-883.329870
155.10	-0.004279	0.081470	10.542244	13.953481	-812.375134	-940.639536
155.61	-0.002602	0.081570	10.541289	14.383311	-844.293444	-961.648120
156.12	-0.000860	0.081708	10.540814	14.979857	-868.970459	-972.088351
156.63	0.000758	0.081839	10.540454	15.547048	-890.343953	-980.021921
157.14	0.002113	0.081970	10.540489	16.139595	-903.167318	-979.242709
157.65	0.003051	0.082072	10.540610	16.599396	-910.951586	-976.571603
158.16	0.003513	0.082154	10.540779	17.031472	-917.019720	-972.872252
158.67	0.003433	0.082208	10.540337	17.273326	-932.771440	-982.587132
159.18	0.002862	0.082260	10.540050	17.649475	-948.053320	-988.904902
159.69	0.001819	0.082295	10.540447	17.815306	-942.716284	-980.172461
160.20	0.000465	0.082336	10.540439	18.050263	-948.301298	-980.340713
160.71	-0.001077	0.082364	10.539787	18.332052	-969.834377	-994.693541
161.22	-0.002633	0.082381	10.539600	18.629283	-980.987834	-998.806120
161.73	-0.004047	0.082367	10.539923	18.729420	-975.836231	-991.693122
162.24	-0.005187	0.082352	10.539799	18.731047	-978.728687	-994.416521
162.75	-0.005933	0.082316	10.539570	18.606651	-981.162090	-999.469305
163.26	-0.006231	0.082307	10.539418	18.577074	-983.988010	-1002.814431
163.77	-0.006053	0.082294	10.539258	17.365277	-959.770753	-1006.322790
164.28	-0.005445	0.082296	10.539709	18.754586	-981.360559	-996.410190
164.79	-0.004480	0.082289	10.539941	17.996490	-958.545692	-991.293672
165.30	-0.003267	0.082289	10.539856	18.949548	-982.442055	-993.160755
165.81	-0.001932	0.082283	10.539898	17.683604	-952.350274	-992.254367
166.32	-0.000614	0.082298	10.539826	18.110392	-963.815412	-993.819352
166.83	0.000555	0.082319	10.539644	17.218798	-947.503172	-997.837155
167.34	0.001478	0.082351	10.539443	18.141212	-973.373294	-1002.259918
167.85	0.002058	0.082383	10.539623	17.725751	-959.653581	-998.295536
168.36	0.002296	0.082412	10.540070	18.811476	-974.329742	-988.454228
168.87	0.002133	0.082401	10.540629	17.698309	-935.825012	-976.167932
169.38	0.001679	0.082387	10.540502	18.228322	-950.956240	-978.963370
169.89	0.000957	0.082361	10.540724	16.669997	-909.950825	-974.066664
170.40	0.000085	0.082355	10.540706	16.232133	-900.296550	-974.472271
170.91	-0.000851	0.082354	10.540550	1.700789	-569.379446	-977.896283
171.42	-0.001741	0.082358	10.540145	-77.395529	1242.036666	-986.819184
171.93	-0.002494	0.082367	10.540160	-213.089081	4366.017518	-986.474155
172.44	-0.003056	0.082370	10.540617	-290.247847	6152.711699	-976.433545
172.95	-0.003368	0.082302	10.541009	-318.718068	6817.139689	-967.797625
173.46	-0.003408	0.082008	10.541704	-329.137638	7073.028352	-952.502958
173.97	-0.003268	0.081118	10.543792	-333.296945	7216.909720	-906.586237
174.48	-0.002838	0.079067	10.544783	-335.125148	7281.856071	-884.778288
174.99	-0.002303	0.075161	10.546149	-336.002079	7333.546116	-854.727050
175.50	-0.001743	0.069007	10.550615	-336.451579	7446.891683	-756.476511
176.01	-0.001070	0.060774	10.557500	-336.692645	7611.242302	-604.995077
176.52	-0.000546	0.051227	10.556595	-336.822831	7593.359937	-624.911862
177.03	-0.000112	0.041352	10.550176	-336.890212	7446.870959	-766.128040
177.54	0.000245	0.032077	10.549271	-336.921065	7426.715064	-786.032322
178.05	0.000391	0.024001	10.550109	-336.937671	7446.429211	-767.591541
178.56	0.000345	0.017402	10.550109	-336.958491	7446.900706	-767.598956
179.07	0.000274	0.012240	10.549866	-337.000682	7442.257485	-772.954613
179.58	0.000008	0.008324	10.548399	-337.076800	7410.174346	-805.230314
180.09	-0.000269	0.005396	10.549975	-337.203903	7449.446283	-770.559628
180.61	-0.000558	0.003240	10.549981	-337.398107	7454.068397	-770.415010
181.12	-0.000894	0.001640	10.549997	-337.700548	7461.391600	-770.070545
181.63	-0.001076	0.000475	10.549975	-338.162668	7471.525826	-770.550934
182.14	-0.001290	-0.000387	10.549966	-338.907120	7488.465785	-770.738930
182.65	-0.001350	-0.001019	10.549974	-340.132594	7516.854993	-770.567967
183.16	-0.001400	-0.001496	10.549976	-342.298814	7566.760921	-770.529557
183.67	-0.001349	-0.001845	10.549974	-346.728192	7668.675991	-770.575034
184.18	-0.001275	-0.002097	10.549974	-360.928560	7995.568347	-770.570527
184.69	-0.001179	-0.002267	10.549972	-157.856012	3320.856640	-770.619290
185.20	-0.001095	-0.002378	10.549970	-314.786906	6933.303816	-770.665383
185.71	-0.000957	-0.002422	10.549976	-324.319808	7152.900009	-770.520342
186.22	-0.000901	-0.002412	10.549979	-327.766045	7232.290385	-770.463889
186.73	-0.000884	-0.002341	10.549979	-329.510749	7272.446664	-770.469818
187.24	-0.000735	-0.002235	10.549978	-330.400870	7292.911803	-770.493783
187.75	-0.000880	-0.002109	10.549972	-330.745036	7300.699641	-770.622336
188.26	-0.000812	-0.001983	10.549974	-330.519157	7295.562341	-770.562839
188.77	-0.000824	-0.001850	10.549974	-329.611010	7274.651490	-770.568197
189.28	-0.000805	-0.001753	10.549975	-327.191400	7218.964977	-770.556681
189.79	-0.000793	-0.001663	10.549971	-320.852351	7072.955089	-770.639799
190.30	-0.000716	-0.001607	10.549966	-286.888194	6291.006793	-770.739992
190.81	-0.000697	-0.001575	10.549966	-395.871857	8799.768131	-770.745056
191.32	-0.000559	-0.001580	10.549966	-359.144666	7954.320449	-770.745342
191.83	-0.000502	-0.001596	10.549966	-352.939911	7811.488690	-770.745739
192.34	-0.000423	-0.001633	10.549966	-351.333355	7774.506463	-770.745606
192.85	-0.000323	-0.001671	10.549966	-351.937454	7788.412423	-770.745782
193.36	-0.000396	-0.001718	10.549966	-355.072090	7860.570934	-770.745532
193.87	-0.000275	-0.001765	10.549966	-365.281649	8095.592181	-770.744875
194.38	-0.000460	-0.001817	10.549966	-446.305852	9960.741281	-770.745193
194.89	-0.000431	-0.001849	10.549966	-291.102735	6388.018236	-770.745557
195.40	-0.000647	-0.001869	10.549966	-318.904329	7028.001655	-770.745352
195.91	-0.000677	-0.001853	10.549966	-325.860551	7188.131341	-770.745509
196.42	-0.000816	-0.001830	10.549966	-328.761071	7254.900324	-770.745491
196.93	-0.000940	-0.001773	10.549966	-330.248963	7289.151313	-770.745291
197.44	-0.000925	-0.001722	10.549966	-330.868941	7303.422785	-770.745482
197.95	-0.001038	-0.001648	10.549966	-330.983507	7306.060429	-770.745117
198.46	-0.000971	-0.001581	10.549966	-330.482259	7294.522062	-770.744949
198.97	-0.000932	-0.001519	10.549966	-329.141319	7263.654568	-770.744472
199.48	-0.000832	-0.001477	10.549966	-326.014767	7191.682102	-770.744777
199.99	-0.000741	-0.001442	10.549966	-317.899798	7004.877215	-770.745809
200.50	-0.000576	-0.001427	10.549966	-274.327002	6001.846597	-770.745562
201.01	-0.000487	-0.001426	10.549966	-409.473319	9112.869166	-770.745026
201.52	-0.000334	-0.001452	10.549966	-365.625336	8103.503466	-770.745130
202.03	-0.000255	-0.001469	10.549966	-358.196831	7932.502123	-770.744852
202.54	-0.000206	-0.001525	10.549966	-356.837766	7901.217611	-770.744180
203.05	-0.000133	-0.001571	10.549966	-358.834575	7947.183568	-770.744104
203.56	-0.000230	-0.001643	10.549966	-365.515035	8100.964765	-770.744767
204.07	-0.000184	-0.001704	10.549966	-387.645444	8610.399037	-770.744928
204.58	-0.000366	-0.001751	10.549966	-908.200569	20593.399609	-770.745240
205.09	-0.000372	-0.001767	10.549966	-281.173141	6159.442150	-770.745782
205.60	-0.000557	-0.001767	10.549966	-310.480947	6834.097371	-770.746206
206.12	-0.000598	-0.001730	10.549966	-319.349507	7038.248470	-770.746329
206.63	-0.000702	-0.001693	10.549967	-323.202201	7126.948105	-770.734936
207.14	-0.000780	-0.001634	10.549966	-325.102609	7170.692084	-770.737573
207.65	-0.000773	-0.001569	10.549967	-325.784884	7186.401658	-770.733908
208.16	-0.000824	-0.001503	10.549967	-325.800176	7186.754246	-770.733379
208.67	-0.000757	-0.001450	10.549967	-324.394622	7154.399349	-770.732920
209.18	-0.000726	-0.001398	10.549967	-321.740181	7093.295004	-770.732935
209.69	-0.000635	-0.001384	10.549967	-316.575872	6974.414299	-770.733007
210.20	-0.000578	-0.001358	10.549967	-303.461604	6672.527859	-770.733466
210.71	-0.000459	-0.001361	10.549967	-269.712557	5895.635055	-770.734700
211.22	-0.000405	-0.001345	10.549967	-7.179401	-147.786925	-770.733292
211.73	-0.000341	-0.001357	10.549967	-491.568444	11002.681952	-770.734432
212.24	-0.000258	-0.001361	10.549966	-434.604632	9691.388329	-770.740298
212.75	-0.000288	-0.001356	10.549966	-446.906869	9974.581594	-770.740332
213.26	-0.000228	-0.001332	10.549966	-472.527152	10564.351402	-770.740654
213.77	-0.000293	-0.001282	10.549966	-5001.533512	114820.524841	-770.744170
214.28	-0.000292	-0.001245	10.549966	-210.510902	4532.823356	-770.744096
214.79	-0.000375	-0.001177	10.549966	-280.279253	6138.866852	-770.744164
215.30	-0.000379	-0.001157	10.549966	-302.772483	6656.652959	-770.744497
215.81	-0.000490	-0.001116	10.549966	-309.860379	6819.816738	-770.741788
216.32	-0.000502	-0.001123	10.549966	-314.475666	6926.058942	-770.741915
216.83	-0.000551	-0.001114	10.549966	-315.727425	6954.873561	-770.742334
217.34	-0.000591	-0.001142	10.549968	-315.990817	6960.981636	-770.699516
217.85	-0.000579	-0.001160	10.549968	-314.752527	6932.480012	-770.696304
218.36	-0.000607	-0.001185	10.549968	-312.825127	6888.111315	-770.696885
218.87	-0.000570	-0.001206	10.549968	-310.257345	6828.995684	-770.702760
219.38	-0.000549	-0.001220	10.549968	-307.751036	6771.305401	-770.698852
219.89	-0.000509	-0.001235	10.549968	-302.855782	6658.623654	-770.693771
220.40	-0.000467	-0.001228	10.549968	-300.847840	6612.400573	-770.694676
220.91	-0.000431	-0.001227	10.549968	-300.191431	6597.283266	-770.701339
221.42	-0.000386	-0.001202	10.549968	-293.364510	6440.130759	-770.700517
221.93	-0.000354	-0.001178	10.549968	-301.542986	6628.383746	-770.712648
222.44	-0.000333	-0.001139	10.549967	-299.794144	6588.103488	-770.734121
222.95	-0.000330	-0.001112	10.549966	-301.261006	6621.866845	-770.737272
223.46	-0.000291	-0.001085	10.549967	-301.305070	6622.886216	-770.732475
223.97	-0.000359	-0.001095	10.549967	-300.372537	6601.420469	-770.731675
224.48	-0.000320	-0.001087	10.549967	-296.587207	6514.283889	-770.731275
224.99	-0.000383	-0.001093	10.549967	-295.223717	6482.896533	-770.731539
225.50	-0.000398	-0.001063	10.549967	-285.979096	6270.088159	-770.731887
226.01	-0.000423	-0.001040	10.549967	-281.323376	6162.915463	-770.731528
226.52	-0.000439	-0.001002	10.549967	-273.143048	5974.606724	-770.731880
227.03	-0.000457	-0.000995	10.549967	-253.487619	5522.145419	-770.731949
227.54	-0.000448	-0.000991	10.549967	-269.385043	5888.099387	-770.731266
228.05	-0.000479	-0.001008	10.549967	-237.434364	5152.605509	-770.731426
228.56	-0.000447	-0.001011	10.549967	-277.759740	6080.882369	-770.730964
229.07	-0.000462	-0.001019	10.549967	-273.193531	5975.769338	-770.731406
229.58	-0.000434	-0.001010	10.549967	-295.409683	6487.173955	-770.734829
230.09	-0.000418	-0.001021	10.549967	-296.855905	6520.477010	-770.723838
230.60	-0.000401	-0.001028	10.549967	-303.722309	6678.539440	-770.723707
231.11	-0.000376	-0.001071	10.549967	-307.055698	6755.265791	-770.730496
231.62	-0.000346	-0.001106	10.549967	-305.479690	6718.987543	-770.729609
232.14	-0.000340	-0.001165	10.549967	-307.525985	6766.093927	-770.728317
232.65	-0.000323	-0.001203	10.549967	-304.281796	6691.414663	-770.727488
233.16	-0.000331	-0.001248	10.549967	-301.514502	6627.712769	-770.727238
233.67	-0.000311	-0.001251	10.549967	-296.986432	6523.478232	-770.727145
234.18	-0.000340	-0.001262	10.549967	-291.485194	6396.841693	-770.727089
234.69	-0.000321	-0.001243	10.549967	-278.952439	6108.341663	-770.727358
235.20	-0.000343	-0.001233	10.549967	-268.597258	5869.968411	-770.727863
235.71	-0.000357	-0.001201	10.549967	-239.107894	5191.133332	-770.727875
236.22	-0.000366	-0.001174	10.549967	-211.487520	4555.321926	-770.727715
236.73	-0.000372	-0.001119	10.549967	-188.234987	4020.056035	-770.728229
237.24	-0.000401	-0.001082	10.549967	-113.501759	2299.719088	-770.731682
237.75	-0.000373	-0.001030	10.549967	-214.601436	4626.996584	-770.734034
238.26	-0.000406	-0.000994	10.549966	-189.228267	4042.911275	-770.737518
238.77	-0.000365	-0.000945	10.549966	-267.118805	5835.922858	-770.739370
239.28	-0.000390	-0.000923	10.549966	-270.047195	5903.333376	-770.739404
239.79	-0.000367	-0.000888	10.549966	-294.547196	6467.314983	-770.739437
240.30	-0.000363	-0.000891	10.549966	-297.357823	6532.014522	-770.739558
240.81	-0.000350	-0.000884	10.549967	-303.729452	6678.696033	-770.731162
241.32	-0.000343	-0.000904	10.549967	-306.512594	6742.763037	-770.731141
241.83	-0.000323	-0.000917	10.549967	-305.743808	6725.065932	-770.731075
242.34	-0.000324	-0.000961	10.549967	-306.327435	6738.500313	-770.731553
242.85	-0.000305	-0.001001	10.549967	-301.998719	6638.856569	-770.729812
243.36	-0.000310	-0.001053	10.549967	-298.469012	6557.598455	-770.735032
243.87	-0.000304	-0.001073	10.549967	-291.871832	6405.733222	-770.735414
244.38	-0.000319	-0.001088	10.549967	-286.498071	6282.032316	-770.734238
244.89	-0.000314	-0.001063	10.549967	-274.595690	6008.043772	-770.734052
245.40	-0.000334	-0.001033	10.549967	-268.056732	5857.519949	-770.733329
245.91	-0.000326	-0.000990	10.549967	-258.357852	5634.255929	-770.732495
246.42	-0.000348	-0.000980	10.549967	-233.855676	5070.220741	-770.735808
246.93	-0.000334	-0.000970	10.549966	-245.362864	5335.108475	-770.739431
247.44	-0.000361	-0.000978	10.549966	-219.899508	4748.946305	-770.743663
247.95	-0.000337	-0.000978	10.549966	-246.262547	5355.815868	-770.742312
248.46	-0.000353	-0.000983	10.549966	-245.682249	5342.457908	-770.742013
248.97	-0.000330	-0.000971	10.549966	-266.961194	5832.292083	-770.741883
249.48	-0.000332	-0.000965	10.549966	-268.206652	5860.961733	-770.742241
249.99	-0.000317	-0.000941	10.549966	-285.483970	6258.679559	-770.742356
250.50	-0.000323	-0.000940	10.549966	-286.794292	6288.842944	-770.742150
251.01	-0.000296	-0.000938	10.549966	-291.483888	6396.795895	-770.742087
251.52	-0.000304	-0.000961	10.549966	-293.608245	6445.697750	-770.742201
252.03	-0.000290	-0.000957	10.549966	-292.897214	6429.329717	-770.742523
252.54	-0.000288	-0.000954	10.549966	-295.085816	6479.714194	-770.739086
253.05	-0.000284	-0.000920	10.549966	-293.934003	6453.199928	-770.739006
253.56	-0.000295	-0.000901	10.549966	-293.195595	6436.201410	-770.739612
254.07	-0.000286	-0.000877	10.549966	-290.962592	6384.798551	-770.739502
254.58	-0.000308	-0.000885	10.549966	-286.211960	6275.440871	-770.739274
255.09	-0.000300	-0.000884	10.549966	-281.911092	6176.436233	-770.739400
255.60	-0.000322	-0.000900	10.549966	-274.095003	5996.512751	-770.739188
256.11	-0.000316	-0.000892	10.549966	-268.922813	5877.450960	-770.738945
256.62	-0.000329	-0.000892	10.549966	-264.648056	5779.047410	-770.739050
257.13	-0.000314	-0.000875	10.549966	-265.341649	5795.013939	-770.738799
257.65	-0.000317	-0.000872	10.549966	-255.881121	5577.235738	-770.738879
258.16	-0.000303	-0.000863	10.549966	-272.075380	5950.021808	-770.739106
258.67	-0.000316	-0.000887	10.549966	-262.049852	5719.237601	-770.739080
259.18	-0.000288	-0.000888	10.549966	-274.430318	6004.231778	-770.739005
259.69	-0.000306	-0.000908	10.549966	-275.563060	6030.306589	-770.739501
260.20	-0.000296	-0.000887	10.549966	-280.645723	6147.307635	-770.739611
260.71	-0.000286	-0.000866	10.549966	-284.070925	6226.154940	-770.739306
261.22	-0.000286	-0.000832	10.549966	-288.213643	6321.518708	-770.739487
261.73	-0.000286	-0.000805	10.549966	-288.901644	6337.356380	-770.739365
262.24	-0.000267	-0.000779	10.549966	-293.598243	6445.470492	-770.739354
262.75	-0.000284	-0.000779	10.549966	-290.393478	6371.697833	-770.739418
263.26	-0.000269	-0.000765	10.549966	-292.797840	6427.045555	-770.739282
263.77	-0.000283	-0.000784	10.549966	-288.687923	6332.436858	-770.739107
264.28	-0.000277	-0.000789	10.549966	-286.412249	6280.051737	-770.739007
264.79	-0.000286	-0.000813	10.549966	-282.555550	6191.272172	-770.738693
265.30	-0.000273	-0.000831	10.549966	-277.431320	6073.314128	-770.738709
265.81	-0.000288	-0.000863	10.549966	-269.658084	5894.376774	-770.738825
266.32	-0.000267	-0.000874	10.549966	-267.602528	5847.058692	-770.738711
266.83	-0.000291	-0.000898	10.549966	-261.827410	5714.117434	-770.738740
267.34	-0.000266	-0.000899	10.549966	-263.596865	5754.849109	-770.739277
267.85	-0.000285	-0.000912	10.549966	-257.561751	5615.922709	-770.739412
268.36	-0.000267	-0.000898	10.549966	-265.577011	5800.431600	-770.739078
268.87	-0.000283	-0.000896	10.549966	-261.362012	5703.403873	-770.738986
269.38	-0.000262	-0.000884	10.549966	-267.268173	5839.361714	-770.738955
269.89	-0.000275	-0.000906	10.549966	-268.538030	5868.593366	-770.738957
270.40	-0.000258	-0.000926	10.549966	-268.565578	5869.227422	-770.739045
270.91	-0.000263	-0.000957	10.549966	-267.440921	5843.337874	-770.739365
271.42	-0.000244	-0.000958	10.549966	-272.471611	5959.140856	-770.741065
271.93	-0.000259	-0.000958	10.549966	-267.631125	5847.714347	-770.741224
272.44	-0.000246	-0.000927	10.549966	-275.400973	6026.573530	-770.741294
272.95	-0.000260	-0.000913	10.549967	-269.471385	5890.102871	-770.716084
273.46	-0.000244	-0.000871	10.549968	-276.924369	6061.669664	-770.714505
273.97	-0.000262	-0.000841	10.549967	-275.201799	6022.015199	-770.715920
274.48	-0.000253	-0.000789	10.549968	-278.557751	6099.269543	-770.714511
274.99	-0.000261	-0.000765	10.549968	-278.159864	6090.111270	-770.713605
275.50	-0.000249	-0.000726	10.549968	-280.028898	6133.135792	-770.713615
276.01	-0.000255	-0.000718	10.549968	-277.104460	6065.815618	-770.714201
276.52	-0.000237	-0.000718	10.549967	-277.219544	6068.463313	-770.715621
277.03	-0.000256	-0.000742	10.549967	-271.264077	5931.369968	-770.716132
277.54	-0.000228	-0.000759	10.549967	-270.961089	5924.394994	-770.716415
278.05	-0.000246	-0.000771	10.549967	-268.446552	5866.510580	-770.717027
278.56	-0.000227	-0.000762	10.549967	-272.565867	5961.336187	-770.716655
279.07	-0.000238	-0.000749	10.549967	-272.598883	5962.097558	-770.715359
279.58	-0.000225	-0.000709	10.549967	-279.851839	6129.052414	-770.720810
280.09	-0.000236	-0.000683	10.549967	-280.599367	6146.260231	-770.720830
280.60	-0.000224	-0.000647	10.549967	-287.237296	6299.063068	-770.720842
281.11	-0.000235	-0.000633	10.549967	-286.134758	6273.683024	-770.720846
281.62	-0.000228	-0.000621	10.549967	-291.002958	6385.747314	-770.720846
282.13	-0.000233	-0.000644	10.549966	-285.702112	6263.702913	-770.740632
282.64	-0.000218	-0.000657	10.549966	-287.086952	6295.581550	-770.740543
283.15	-0.000232	-0.000686	10.549966	-281.156442	6159.063489	-770.740297
283.67	-0.000220	-0.000698	10.549966	-280.520319	6144.420586	-770.739903
284.18	-0.000231	-0.000727	10.549966	-275.176183	6021.400632	-770.739685
284.69	-0.000220	-0.000727	10.549966	-276.391606	6049.378477	-770.740410
285.20	-0.000232	-0.000737	10.549966	-269.637999	5893.911073	-770.742032
285.71	-0.000221	-0.000725	10.549966	-272.707731	5964.575686	-770.741602
286.22	-0.000234	-0.000731	10.549966	-268.854018	5875.865466	-770.740710
286.73	-0.000219	-0.000727	10.549966	-268.898829	5876.896240	-770.741452
287.24	-0.000230	-0.000757	10.549966	-265.020137	5787.610352	-770.741178
287.75	-0.000220	-0.000783	10.549966	-265.141908	5790.414615	-770.740095
288.26	-0.000220	-0.000827	10.549966	-258.640342	5640.751025	-770.739877
288.77	-0.000206	-0.000853	10.549966	-261.936130	5716.617882	-770.740887
289.28	-0.000217	-0.000882	10.549966	-257.435025	5613.003580	-770.741262
289.79	-0.000196	-0.000893	10.549966	-261.852490	5714.692661	-770.740738
290.30	-0.000216	-0.000915	10.549966	-258.561164	5638.927898	-770.740328
290.81	-0.000204	-0.000903	10.549966	-262.729888	5734.890393	-770.740417
291.32	-0.000214	-0.000900	10.549966	-259.418263	5658.657956	-770.740401
291.83	-0.000210	-0.000856	10.549966	-263.886475	5761.513499	-770.741515
292.34	-0.000219	-0.000826	10.549966	-263.184080	5745.344610	-770.741498
292.85	-0.000201	-0.000780	10.549966	-270.245382	5907.894498	-770.740426
293.36	-0.000216	-0.000753	10.549966	-266.387670	5819.090801	-770.740892
293.87	-0.000203	-0.000722	10.549966	-273.254338	5977.158971	-770.741050
294.38	-0.000221	-0.000706	10.549966	-272.575288	5961.528022	-770.740542
294.89	-0.000208	-0.000676	10.549966	-273.296829	5978.137062	-770.741085
295.40	-0.000221	-0.000667	10.549966	-274.134018	5997.408995	-770.740961
295.91	-0.000210	-0.000644	10.549966	-276.249266	6046.102429	-770.739872
296.42	-0.000221	-0.000642	10.549966	-271.973814	5947.683813	-770.739083
296.93	-0.000203	-0.000622	10.549966	-278.076206	6088.158979	-770.738904
297.44	-0.000223	-0.000613	10.549966	-275.688182	6033.186428	-770.739904
297.95	-0.000209	-0.000588	10.549966	-281.182104	6159.654154	-770.740358
298.46	-0.000220	-0.000591	10.549966	-279.633355	6124.001619	-770.741185
298.97	-0.000203	-0.000603	10.549966	-280.246269	6138.111640	-770.740288
299.48	-0.000213	-0.000638	10.549966	-274.017016	5994.716282	-770.740372
299.99	-0.000199	-0.000663	10.549966	-274.901600	6015.077696	-770.741707
300.50	-0.000215	-0.000710	10.549966	-265.122813	5789.973209	-770.741853
301.01	-0.000199	-0.000735	10.549967	-268.848852	5875.764583	-770.723518
301.52	-0.000208	-0.000778	10.549967	-257.870767	5623.051637	-770.724637
302.03	-0.000192	-0.000791	10.549967	-261.982937	5717.713080	-770.723973
302.54	-0.000203	-0.000798	10.549967	-255.888682	5577.424616	-770.724750
303.05	-0.000195	-0.000773	10.549967	-263.099210	5743.407496	-770.725696
303.56	-0.000205	-0.000748	10.549967	-259.536079	5661.386083	-770.725094
304.07	-0.000187	-0.000691	10.549967	-269.181238	5883.415766	-770.723726
304.58	-0.000204	-0.000659	10.549967	-267.956769	5855.228392	-770.724222
305.09	-0.000191	-0.000608	10.549967	-274.695188	6010.344112	-770.724584
305.60	-0.000204	-0.000575	10.549967	-273.315040	5978.574720	-770.723490
306.11	-0.000192	-0.000539	10.549967	-281.104019	6157.875064	-770.722812
306.62	-0.000198	-0.000518	10.549967	-280.427478	6142.298588	-770.725420
307.13	-0.000183	-0.000500	10.549967	-285.407491	6256.933140	-770.728896
307.64	-0.000202	-0.000514	10.549967	-280.251171	6138.236446	-770.728864
308.15	-0.000182	-0.000521	10.549967	-283.553111	6214.243362	-770.731363
308.66	-0.000201	-0.000541	10.549967	-279.468551	6120.218477	-770.731098
309.18	-0.000184	-0.000532	10.549967	-282.313295	6185.703908	-770.730720
309.69	-0.000202	-0.000538	10.549967	-278.962211	6108.562789	-770.731014
310.20	-0.000184	-0.000520	10.549967	-282.243898	6184.106057	-770.731043
310.71	-0.000195	-0.000504	10.549967	-279.814607	6128.185122	-770.730553
311.22	-0.000182	-0.000459	10.549967	-288.989514	6339.388577	-770.730339
311.73	-0.000192	-0.000418	10.549967	-287.964639	6315.796744	-770.729915
312.24	-0.000175	-0.000367	10.549967	-297.323448	6531.232961	-770.730266
312.75	-0.000198	-0.000347	10.549967	-296.350855	6508.843770	-770.730678
313.26	-0.000184	-0.000330	10.549967	-300.158388	6596.492424	-770.730161
313.77	-0.000195	-0.000355	10.549967	-294.959705	6476.820470	-770.730198
314.28	-0.000187	-0.000371	10.549967	-295.164267	6481.527405	-770.732134
314.79	-0.000192	-0.000403	10.549967	-288.916901	6337.716696	-770.730672
315.30	-0.000180	-0.000407	10.549967	-290.651908	6377.655340	-770.731277
315.81	-0.000192	-0.000425	10.549967	-287.113755	6296.206476	-770.732989
316.32	-0.000174	-0.000412	10.549956	-289.710857	6355.733005	-770.978965
316.83	-0.000189	-0.000415	10.549956	-285.845795	6266.760605	-770.978965
317.34	-0.000174	-0.000417	10.549954	-288.734749	6333.228176	-771.012503
317.85	-0.000189	-0.000443	10.549958	-282.955410	6200.284898	-770.921767
318.36	-0.000173	-0.000462	10.549958	-283.221343	6206.409070	-770.919379
318.87	-0.000182	-0.000510	10.549921	-274.595663	6006.989526	-771.739106
319.38	-0.000164	-0.000524	10.549901	-276.104694	6041.264524	-772.180193
319.89	-0.000174	-0.000544	10.549902	-270.585677	5914.254947	-772.145540
320.40	-0.000154	-0.000540	10.549922	-274.762339	6010.859492	-771.707496
320.91	-0.000172	-0.000531	10.549923	-271.392729	5933.306169	-771.694209
321.42	-0.000160	-0.000509	10.549934	-277.407481	6072.018296	-771.451338
321.93	-0.000171	-0.000492	10.549931	-276.794220	6057.832514	-771.516892
322.44	-0.000160	-0.000454	10.549932	-281.606589	6168.628320	-771.500954
322.95	-0.000170	-0.000417	10.549933	-282.652998	6192.734055	-771.484020
323.46	-0.000154	-0.000363	10.549939	-292.338603	6415.853000	-771.331732
323.97	-0.000170	-0.000336	10.549939	-291.205693	6389.768792	-771.336523
324.48	-0.000157	-0.000292	10.549940	-301.165428	6619.065658	-771.310589
324.99	-0.000170	-0.000280	10.549942	-300.669137	6607.679524	-771.274048
325.50	-0.000160	-0.000254	10.549942	-305.776372	6725.250457	-771.270095
326.01	-0.000170	-0.000249	10.549941	-305.676468	6722.916816	-771.302432
326.52	-0.000153	-0.000241	10.549940	-308.021593	6776.871947	-771.329951
327.03	-0.000164	-0.000249	10.549941	-304.314615	6691.560607	-771.308934
327.54	-0.000148	-0.000266	10.549940	-304.523857	6696.367930	-771.317867
328.05	-0.000173	-0.000301	10.549938	-297.552872	6535.856440	-771.357728
328.56	-0.000157	-0.000340	10.549940	-296.145918	6503.497203	-771.330678
329.07	-0.000181	-0.000388	10.549939	-286.924677	6291.220080	-771.337654
329.58	-0.000171	-0.000409	10.549941	-287.375074	6301.632610	-771.295164
330.09	-0.000180	-0.000432	10.549942	-281.620174	6169.184884	-771.268339
330.60	-0.000166	-0.000420	10.549942	-286.013058	6270.294499	-771.280826
331.11	-0.000173	-0.000394	10.549941	-284.909105	6244.854284	-771.307141
331.62	-0.000161	-0.000339	10.549935	-296.445881	6510.305434	-771.423027
332.13	-0.000170	-0.000295	10.549920	-299.437121	6578.802902	-771.766289
332.64	-0.000150	-0.000247	10.549932	-307.445335	6763.443714	-771.485401
333.15	-0.000164	-0.000260	10.549939	-303.162812	6665.012790	-771.341073
333.66	-0.000146	-0.000295	10.549940	-300.282433	6598.729823	-771.319750
334.17	-0.000160	-0.000371	10.549938	-286.962597	6292.069877	-771.359693
334.69	-0.000146	-0.000459	10.549938	-279.665660	6124.103168	-771.353689
335.20	-0.000159	-0.000556	10.549941	-261.292749	5701.213948	-771.307042
335.71	-0.000145	-0.000624	10.549937	-255.695011	5572.265941	-771.392889
336.22	-0.000164	-0.000686	10.549939	-239.552398	5200.724831	-771.339159
336.73	-0.000156	-0.000684	10.549942	-245.427108	5336.026382	-771.274543
337.24	-0.000165	-0.000659	10.549942	-245.302122	5333.153631	-771.270373
