Length [m]	OTDR [V]	Brillouin intensity [V]	Fitted Frequency [GHz]	Temperature [”]	Compensated Strain [レュ]	Uncompensated Strain [レュ]
0.51	0.007120	0.041223	10.510738	-152.618429	2309.244182	-1633.766870
1.02	0.007173	0.045006	10.485589	-130.074350	1210.266263	-2187.051776
1.53	0.007195	0.048258	10.464952	-92.293487	-135.384582	-2641.061284
2.04	0.007210	0.050945	10.451041	-55.316953	-1307.395585	-2947.096781
2.55	0.007218	0.053206	10.443422	-31.040591	-2041.946938	-3114.714892
3.06	0.007153	0.055036	10.439161	-20.143076	-2391.070476	-3208.451768
3.57	0.007112	0.056591	10.437479	-22.524271	-2375.051457	-3245.458781
4.08	0.007080	0.057844	10.437139	-25.671105	-2310.453716	-3252.938631
4.59	0.007074	0.058930	10.436710	-12.955831	-2613.055635	-3262.382935
5.10	0.007099	0.059803	10.436976	7.717088	-3082.794389	-3256.521407
5.61	0.007152	0.060540	10.437031	26.816242	-3521.195240	-3255.324109
6.12	0.007163	0.061051	10.436414	32.247378	-3660.437853	-3268.888389
6.63	0.007150	0.061431	10.435778	25.452184	-3518.686809	-3282.884073
7.14	0.007104	0.061655	10.435773	11.065585	-3187.633572	-3282.999825
7.65	0.007083	0.061865	10.436529	3.092466	-2986.650979	-3266.359795
8.16	0.007066	0.061996	10.436231	7.549225	-3096.109639	-3272.908910
8.67	0.007110	0.062170	10.436664	23.689125	-3457.674698	-3263.398572
9.18	0.007165	0.062279	10.437364	41.015776	-3840.371175	-3247.986227
9.69	0.007204	0.062353	10.436306	53.290677	-4147.343176	-3271.269127
10.20	0.007181	0.062299	10.435543	54.057851	-4182.604136	-3288.058692
10.71	0.007142	0.062235	10.435358	49.055028	-4071.707854	-3292.128988
11.22	0.007075	0.062123	10.435763	43.285407	-3929.545070	-3283.211796
11.73	0.007048	0.062097	10.435700	46.179416	-3997.626100	-3284.606363
12.24	0.007048	0.062085	10.434757	53.411559	-4185.852075	-3305.348554
12.75	0.007102	0.062158	10.434494	60.435172	-4353.586882	-3311.123150
13.26	0.007138	0.062173	10.434342	58.944626	-4322.797496	-3314.483270
13.77	0.007153	0.062179	10.434834	52.757681	-4169.026381	-3303.656667
14.28	0.007115	0.062081	10.435959	42.466331	-3906.174730	-3278.904452
14.79	0.007076	0.062003	10.436374	35.801915	-3743.193100	-3269.776492
15.30	0.007023	0.061901	10.436405	30.590094	-3622.491791	-3269.083029
15.81	0.007020	0.061900	10.435909	28.905521	-3595.150049	-3279.992414
16.32	0.007012	0.061904	10.436000	27.233793	-3554.581349	-3278.002469
16.83	0.007005	0.061968	10.436176	25.609118	-3513.125115	-3274.132709
17.34	0.006932	0.061944	10.436118	23.550754	-3467.083076	-3275.411687
17.85	0.006822	0.061917	10.436136	27.098154	-3548.321110	-3275.009240
18.36	0.006679	0.061814	10.435418	30.726718	-3648.417043	-3290.813178
18.87	0.006555	0.061742	10.435482	34.680774	-3737.955954	-3289.399407
19.38	0.006453	0.061655	10.435579	35.823983	-3762.022440	-3287.253308
19.89	0.006417	0.061657	10.436108	38.747440	-3817.136550	-3275.631998
20.40	0.006388	0.061643	10.436836	38.702546	-3799.300061	-3259.603505
20.91	0.006379	0.061672	10.436998	39.030669	-3803.119997	-3256.042236
21.42	0.006342	0.061636	10.437845	46.311837	-3951.208170	-3237.420272
21.93	0.006295	0.061628	10.438622	49.698230	-4011.232923	-3220.317846
22.44	0.006243	0.061567	10.438294	50.451393	-4036.132512	-3227.531303
22.95	0.006224	0.061585	10.438322	49.090480	-4004.161120	-3226.917342
23.46	0.006216	0.061589	10.438002	40.313941	-3809.505484	-3233.954576
23.97	0.006246	0.061665	10.438788	41.370715	-3815.695579	-3216.654102
24.48	0.006266	0.061693	10.439494	35.801993	-3671.244474	-3201.142610
24.99	0.006295	0.061742	10.439564	38.121538	-3723.023793	-3199.601280
25.50	0.006288	0.061703	10.439354	39.050162	-3749.238825	-3204.216685
26.02	0.006280	0.061688	10.439643	38.305223	-3725.413655	-3197.847521
26.53	0.006252	0.061625	10.439698	35.884735	-3668.438320	-3196.648904
27.04	0.006254	0.061625	10.439478	36.400189	-3685.372129	-3201.483532
27.55	0.006259	0.061616	10.439307	32.344011	-3595.939252	-3205.240923
28.06	0.006292	0.061683	10.439083	30.381309	-3555.939629	-3210.183192
28.57	0.006300	0.061694	10.438737	34.752415	-3664.522203	-3217.777430
29.08	0.006309	0.061734	10.439405	37.578946	-3714.198256	-3203.097097
29.59	0.006286	0.061702	10.439778	40.658651	-3776.487860	-3194.889558
30.10	0.006266	0.061709	10.439230	43.199732	-3847.621467	-3206.945769
30.61	0.006238	0.061683	10.438396	41.070142	-3817.830970	-3225.291205
31.12	0.006240	0.061743	10.439312	43.506170	-3852.785398	-3205.142717
31.63	0.006241	0.061773	10.440465	43.019979	-3815.001385	-3179.776432
32.14	0.006269	0.061854	10.440381	40.590223	-3760.988725	-3181.607445
32.65	0.006280	0.061840	10.440231	42.648919	-3811.853325	-3184.921428
33.16	0.006287	0.061829	10.440703	41.016314	-3763.375038	-3174.527409
33.67	0.006272	0.061731	10.442029	41.251842	-3738.211210	-3145.351636
34.18	0.006253	0.061659	10.442931	41.889839	-3732.105358	-3125.517742
34.69	0.006236	0.061566	10.443055	41.281245	-3715.243037	-3122.796527
35.20	0.006250	0.061518	10.443568	38.206055	-3632.611562	-3111.500728
35.71	0.006264	0.061478	10.443318	36.815138	-3606.363206	-3117.004838
36.22	0.006291	0.061459	10.442980	35.931361	-3593.814412	-3124.440953
36.73	0.006286	0.061433	10.442985	35.315020	-3579.499823	-3124.320162
37.24	0.006285	0.061416	10.443487	38.623045	-3644.074216	-3113.278494
37.75	0.006258	0.061393	10.444151	40.640566	-3675.215103	-3098.682088
38.26	0.006251	0.061391	10.443796	42.342807	-3722.581300	-3106.486166
38.77	0.006243	0.061381	10.443821	42.584442	-3727.571384	-3105.940274
39.28	0.006265	0.061390	10.444049	41.316562	-3693.132522	-3100.929697
39.79	0.006276	0.061368	10.443821	38.357202	-3630.253503	-3105.932385
40.30	0.006291	0.061355	10.443911	37.726106	-3613.652310	-3103.954392
40.81	0.006285	0.061297	10.444137	38.053411	-3615.979008	-3098.986696
41.32	0.006275	0.061264	10.445054	40.259170	-3645.610433	-3078.816956
41.83	0.006252	0.061203	10.444885	41.004209	-3666.644477	-3082.521428
42.34	0.006255	0.061200	10.444525	41.903315	-3695.658517	-3090.454987
42.85	0.006262	0.061180	10.445507	39.419683	-3615.842861	-3068.855440
43.36	0.006274	0.061210	10.445654	36.707762	-3550.014660	-3065.611488
43.87	0.006278	0.061199	10.444725	34.660536	-3524.312710	-3086.048415
44.38	0.006289	0.061230	10.445179	35.998159	-3544.645709	-3076.071894
44.89	0.006275	0.061201	10.445218	37.892132	-3587.342385	-3075.211519
45.40	0.006273	0.061202	10.445482	41.465199	-3663.501657	-3069.400801
45.91	0.006259	0.061166	10.446367	42.670796	-3670.846527	-3049.933926
46.42	0.006267	0.061180	10.446681	42.759715	-3665.652760	-3043.027045
46.93	0.006262	0.061162	10.446831	39.783007	-3593.668406	-3039.725041
47.44	0.006274	0.061179	10.446124	37.940175	-3567.550876	-3055.277358
47.95	0.006268	0.061142	10.446362	36.914110	-3538.438653	-3050.037972
48.46	0.006268	0.061125	10.446513	38.853362	-3579.584816	-3046.704316
48.97	0.006245	0.061046	10.447762	40.443514	-3587.392762	-3019.234877
49.48	0.006244	0.060999	10.453489	42.973492	-3513.540084	-2893.231740
49.99	0.006230	0.060911	10.472768	42.582021	-3059.901045	-2469.099292
50.50	0.006236	0.060841	10.506044	42.617158	-2293.277063	-1737.041230
51.01	0.006237	0.060638	10.535261	41.723760	-1598.873939	-1094.264303
51.53	0.006245	0.060322	10.556071	43.714097	-1164.746737	-636.443194
52.04	0.006244	0.059769	10.561998	46.327654	-1088.216753	-506.050891
52.55	0.006251	0.059057	10.565383	49.861283	-1091.481353	-431.571579
53.06	0.006243	0.058132	10.567936	50.998165	-1058.783125	-375.416260
53.57	0.006250	0.057170	10.568875	50.591234	-1027.761381	-354.760093
54.08	0.006244	0.056166	10.569096	45.936874	-915.521191	-349.896691
54.59	0.006252	0.055276	10.569386	41.549154	-807.819185	-343.507244
55.10	0.006242	0.054452	10.569707	36.443168	-682.868573	-336.436362
55.61	0.006255	0.053811	10.569736	34.160786	-629.671601	-335.809345
56.12	0.006242	0.053261	10.569776	33.157690	-605.645921	-334.917669
56.63	0.006249	0.052897	10.570396	33.656122	-602.824713	-321.281655
57.14	0.006230	0.052594	10.570847	32.655553	-569.406412	-311.374845
57.65	0.006229	0.052417	10.570695	31.912967	-555.814797	-314.715851
58.16	0.006218	0.052237	10.570332	28.834615	-493.313408	-322.691669
58.67	0.006221	0.052136	10.570246	27.000969	-453.090002	-324.586587
59.18	0.006222	0.051999	10.570486	24.364561	-386.862774	-319.303845
59.69	0.006230	0.051923	10.570702	24.220313	-378.570622	-314.561408
60.20	0.006227	0.051822	10.570618	23.980744	-374.991825	-316.408171
60.71	0.006237	0.051781	10.570966	25.297156	-397.263761	-308.746959
61.22	0.006223	0.051717	10.570576	24.761488	-393.924199	-317.323828
61.73	0.006229	0.051710	10.570490	24.392325	-387.420114	-319.225850
62.24	0.006226	0.051667	10.570696	22.183770	-331.821255	-314.686514
62.75	0.006236	0.051667	10.570794	21.736609	-319.265620	-312.528648
63.26	0.006236	0.051616	10.570575	20.889304	-304.825581	-317.359815
63.77	0.006242	0.051585	10.570363	21.963126	-334.419747	-322.010256
64.28	0.006260	0.051488	10.570639	22.418278	-338.540205	-315.946300
64.79	0.006379	0.051437	10.570931	23.706476	-361.449232	-309.512339
65.30	0.006692	0.051351	10.571347	22.971659	-334.943937	-300.364335
65.81	0.007384	0.051342	10.571869	22.860749	-320.364245	-288.892117
66.32	0.008577	0.051320	10.571613	21.088984	-285.476596	-294.518048
66.83	0.010211	0.051366	10.571426	20.779018	-282.645871	-298.624209
67.34	0.011897	0.051385	10.571626	20.511701	-271.888490	-294.232593
67.85	0.013196	0.051444	10.570938	21.782333	-317.007029	-309.370131
68.36	0.013715	0.051455	10.571238	22.957218	-337.119686	-302.756896
68.87	0.013494	0.051497	10.571944	24.219888	-349.920477	-287.241217
69.38	0.012654	0.051489	10.571244	23.388121	-346.915542	-302.639216
69.89	0.011551	0.051540	10.570882	22.898206	-343.982958	-310.599627
70.40	0.010400	0.051551	10.571375	21.428286	-298.779232	-299.756902
70.91	0.009412	0.051614	10.571586	22.190812	-311.469971	-295.118684
71.42	0.008599	0.051617	10.571582	22.266894	-313.307358	-295.200727
71.93	0.008006	0.051648	10.571771	24.046666	-349.908117	-291.033143
72.44	0.007544	0.051630	10.571591	24.296637	-359.809036	-294.988655
72.95	0.007221	0.051658	10.571492	24.980221	-377.845940	-297.183632
73.46	0.006954	0.051645	10.571659	23.580600	-341.757788	-293.492629
73.97	0.006770	0.051671	10.572065	23.144636	-322.358119	-284.560330
74.48	0.006617	0.051637	10.572454	22.066010	-288.568683	-276.013509
74.99	0.006518	0.051654	10.572929	22.513279	-287.909813	-265.563614
75.50	0.006426	0.051616	10.572803	22.831504	-298.140671	-268.335118
76.01	0.006379	0.051610	10.571852	24.094968	-349.147781	-289.247195
76.52	0.006321	0.051558	10.571616	23.571406	-342.553346	-294.453399
77.03	0.006293	0.051551	10.571939	23.137032	-325.106116	-287.348638
77.55	0.006248	0.051499	10.571721	22.053060	-305.163475	-292.127716
78.06	0.006241	0.051503	10.572168	21.863038	-290.491236	-282.304413
78.57	0.006214	0.051456	10.572717	20.910367	-255.897166	-270.224252
79.08	0.006212	0.051445	10.572914	21.611852	-267.492947	-265.881904
79.59	0.006201	0.051393	10.572837	21.355162	-263.362063	-267.577998
80.10	0.006201	0.051379	10.572291	22.094923	-292.996677	-279.602495
80.61	0.006191	0.051338	10.571973	21.351359	-283.204763	-286.589559
81.12	0.006199	0.051345	10.572463	21.651582	-278.818339	-275.812856
81.63	0.006194	0.051321	10.573165	20.832107	-243.764900	-260.369697
82.14	0.006211	0.051367	10.573125	21.455358	-259.030707	-261.246126
82.65	0.006210	0.051386	10.572881	21.607090	-268.154233	-266.617283
83.16	0.006234	0.051440	10.572860	23.336721	-308.455660	-267.080805
83.67	0.006232	0.051446	10.572483	23.407038	-318.768430	-275.374147
84.18	0.006243	0.051480	10.572733	24.491380	-337.961769	-269.872179
84.69	0.006234	0.051472	10.573289	24.035657	-314.644099	-257.636354
85.20	0.006250	0.051519	10.573623	24.342740	-314.017612	-250.295643
85.71	0.006244	0.051537	10.573099	24.008499	-318.405957	-261.821160
86.22	0.006265	0.051624	10.572601	24.685750	-345.482239	-272.777899
86.73	0.006224	0.051626	10.573088	24.262030	-324.498622	-262.065808
87.24	0.006208	0.051670	10.573340	25.023159	-336.195047	-256.509779
87.75	0.006128	0.051611	10.573447	24.199393	-314.774033	-254.164887
88.26	0.006057	0.051560	10.573566	24.197367	-311.980958	-251.545050
88.77	0.005980	0.051444	10.573385	22.912287	-286.575004	-255.528698
89.28	0.006017	0.051440	10.573038	23.499525	-308.090252	-263.157294
89.79	0.006141	0.051486	10.573281	23.037181	-291.843142	-257.811496
90.30	0.006301	0.051596	10.573522	24.574012	-321.668615	-252.515562
90.81	0.006301	0.051592	10.572966	24.152587	-324.795998	-264.752682
91.32	0.006301	0.051535	10.572769	24.863468	-345.698188	-269.081464
91.83	0.006301	0.051447	10.573147	24.300897	-324.041713	-260.776501
92.34	0.006301	0.051441	10.572984	24.912113	-341.854009	-264.346304
92.85	0.006301	0.051413	10.572415	24.493377	-345.343224	-276.869528
93.36	0.006301	0.051472	10.572217	24.901534	-359.306009	-281.226155
93.87	0.006301	0.051485	10.572837	24.477373	-335.245207	-267.588395
94.38	0.006301	0.051545	10.573594	25.112694	-332.398881	-250.922536
94.89	0.006301	0.051506	10.573495	24.252671	-314.905296	-253.120192
95.40	0.006301	0.051473	10.572644	24.804771	-347.232332	-271.833788
95.91	0.006301	0.051393	10.572566	23.911623	-328.473661	-273.552051
96.42	0.006301	0.051400	10.573096	24.155128	-321.840240	-261.877366
96.93	0.006301	0.051401	10.573208	23.542739	-305.164315	-259.417299
97.44	0.006301	0.051470	10.573144	24.036081	-318.014716	-260.842279
97.95	0.006301	0.051462	10.572769	23.622615	-317.141817	-269.088747
98.46	0.006301	0.051460	10.571445	22.565837	-323.349101	-298.215237
98.97	0.006301	0.051382	10.567556	15.317966	-246.187452	-383.763220
99.48	0.006301	0.051377	10.562765	-1.232821	24.311305	-489.164685
99.99	0.006301	0.051380	10.557753	-32.744010	634.101217	-599.423587
100.50	0.006301	0.051492	10.550339	-74.624410	1427.172299	-762.542695
101.01	0.004858	0.051583	10.541114	-116.369622	2175.372415	-965.495908
101.52	0.003313	0.051738	10.533901	-147.186001	2718.415536	-1124.167891
102.03	0.002162	0.051841	10.529215	-165.627245	3034.833549	-1227.278464
102.54	0.001340	0.051983	10.526426	-171.690289	3110.083764	-1288.632659
103.06	0.000747	0.052120	10.525041	-168.523857	3005.257575	-1319.096595
103.57	0.000383	0.052312	10.524376	-156.609705	2715.661419	-1333.726112
104.08	0.000116	0.052459	10.524876	-138.739243	2315.809523	-1322.737096
104.59	0.000116	0.052624	10.525326	-116.001716	1802.793473	-1312.822157
105.10	0.000099	0.052693	10.527508	-92.404159	1309.899018	-1264.828113
105.61	0.000068	0.052735	10.530770	-68.964228	845.560312	-1193.055837
106.12	0.000058	0.052675	10.533030	-49.357916	446.344168	-1143.343585
106.63	0.000005	0.052620	10.535126	-32.031188	95.831545	-1097.229204
107.14	-0.000046	0.052490	10.536569	-19.117004	-168.163957	-1065.478879
107.65	-0.000055	0.052376	10.537651	-7.596699	-408.405435	-1041.677026
108.16	-0.000096	0.052186	10.538797	0.140033	-560.073839	-1016.466722
108.67	-0.000146	0.052004	10.539147	6.755978	-704.298285	-1008.766476
109.18	-0.000183	0.051753	10.539317	10.286887	-781.665691	-1005.033940
109.69	-0.000239	0.051539	10.539719	13.806009	-853.406389	-996.192856
110.20	-0.000239	0.051307	10.539216	14.837228	-888.737988	-1007.251766
110.71	-0.000239	0.051174	10.539284	17.117271	-939.657420	-1005.757595
111.22	-0.000239	0.051042	10.539545	17.760959	-948.454759	-1000.014939
111.73	-0.000239	0.050982	10.539282	19.924975	-1004.337460	-1005.803048
112.24	-0.000239	0.050865	10.539301	19.512795	-994.400018	-1005.374557
112.75	-0.000239	0.050788	10.539266	20.492436	-1017.761718	-1006.147878
113.26	-0.000239	0.050662	10.539636	19.736314	-991.833601	-998.018268
113.77	-0.000239	0.050606	10.539781	19.975777	-993.992330	-994.819226
114.28	-0.000239	0.050532	10.539927	19.429746	-978.058068	-991.609516
114.79	-0.000239	0.050545	10.540369	20.146345	-984.357865	-981.883450
115.30	-0.000239	0.050542	10.540455	19.657086	-971.108566	-979.988296
115.81	-0.000245	0.050602	10.540548	20.367780	-985.327083	-977.945580
116.32	-0.000245	0.050619	10.540486	19.470187	-966.100076	-979.314704
116.83	-0.000245	0.050652	10.540461	19.775050	-973.677518	-979.848504
117.34	-0.000245	0.050623	10.540029	18.181734	-946.978408	-989.367025
117.85	-0.000245	0.050612	10.540003	18.218346	-948.416800	-989.935176
118.36	-0.000245	0.050553	10.540645	17.211205	-910.433923	-975.818480
118.87	-0.000245	0.050546	10.540097	17.687277	-934.013603	-987.857415
119.38	-0.000198	0.050521	10.539682	16.576171	-918.012251	-996.991922
119.89	-0.000191	0.050564	10.540004	17.222696	-925.472105	-989.911152
120.40	-0.000183	0.050586	10.540085	16.177677	-899.554540	-988.135397
120.91	-0.000146	0.050649	10.540276	18.985531	-959.775704	-983.924196
121.42	-0.000133	0.050655	10.540597	19.906235	-973.569641	-976.864962
121.93	-0.000133	0.050693	10.541074	24.862260	-1076.665238	-966.381171
122.44	-0.000133	0.050670	10.541107	28.930450	-1169.539846	-965.643095
122.95	-0.000133	0.050681	10.540830	33.743415	-1286.715937	-971.732149
123.46	-0.000133	0.050668	10.540425	31.379400	-1241.650031	-980.653933
123.97	-0.000133	0.050708	10.540451	24.225800	-1076.362951	-980.068556
124.48	-0.000133	0.050718	10.540349	15.078086	-868.140384	-982.314715
124.99	-0.000133	0.050766	10.540367	15.411837	-875.426099	-981.935885
125.50	-0.000095	0.050750	10.540744	15.297644	-864.089918	-973.629760
126.01	-0.000088	0.050763	10.540473	15.387985	-872.413015	-979.585455
126.52	-0.000038	0.050715	10.540304	15.054723	-868.655623	-983.319221
127.03	-0.000030	0.050689	10.540619	14.874772	-857.240122	-976.381386
127.54	-0.000013	0.050544	10.541332	13.866904	-817.600574	-960.700348
128.05	0.000000	0.050245	10.541979	11.782880	-754.698102	-946.459535
128.56	0.000000	0.049446	10.542566	6.223128	-613.183023	-933.551786
129.08	0.000000	0.047959	10.543138	-4.123591	-361.819358	-920.973840
129.59	-0.000199	0.045439	10.544332	-21.659569	69.399458	-894.697018
130.10	-0.000186	0.041950	10.544469	-45.941551	631.522215	-891.682831
130.61	-0.000169	0.037541	10.545210	-76.627671	1354.986581	-875.389751
131.12	-0.000081	0.032631	10.551849	-110.801855	2294.787237	-729.325315
131.63	-0.000111	0.027490	10.555390	-146.577241	3200.000107	-651.414409
132.14	-0.000096	0.022515	10.544663	-181.202938	3749.670747	-887.411544
132.65	-0.000041	0.017875	10.542713	-213.496521	4448.078997	-930.317232
133.16	-0.000061	0.013800	10.542767	-241.854700	5102.118711	-929.130434
133.67	-0.000107	0.010283	10.542230	-266.335092	5653.272662	-940.936266
134.18	-0.000098	0.007430	10.541590	-286.187115	6095.485214	-955.029464
134.69	-0.000145	0.005131	10.544043	-302.189643	6520.430976	-901.064150
135.20	-0.000173	0.003394	10.542216	-307.265133	6595.134766	-941.254331
135.71	-0.000142	0.002053	10.542355	-310.727513	6678.055433	-938.184792
136.22	-0.000116	0.001108	10.540746	-315.430798	6749.215818	-973.581938
136.73	-0.000189	0.000370	10.540092	-325.794739	6972.705932	-987.970886
137.24	-0.000176	-0.000130	10.540086	-345.556345	7427.465635	-988.109884
137.75	-0.000152	-0.000527	10.540086	-398.266481	8640.835490	-988.109354
138.26	-0.000185	-0.000779	10.540075	-632.075419	14022.792825	-988.342517
138.77	-0.000186	-0.000977	10.540079	-707.630767	15762.142632	-988.255196
139.28	-0.000127	-0.001066	10.540073	-812.365402	18172.951201	-988.395334
139.79	-0.000185	-0.001140	10.540075	-1073.168331	24176.587019	-988.355636
140.30	-0.000135	-0.001144	10.540075	-1204.665438	27203.605308	-988.355759
140.81	-0.000150	-0.001180	10.540076	-11265.960359	258811.203363	-988.326431
141.32	-0.000125	-0.001163	10.540073	760.174912	-18026.376447	-988.383467
141.83	-0.000167	-0.001174	10.540073	601.030445	-14362.941150	-988.398619
142.34	-0.000116	-0.001119	10.540076	174.817929	-4551.611765	-988.338460
142.85	-0.000141	-0.001099	10.540071	-7.569319	-353.231595	-988.445193
143.36	-0.000104	-0.001036	10.540083	-89.969056	1543.861419	-988.178802
143.87	-0.000113	-0.001034	10.540084	-148.206673	2884.491888	-988.159315
144.38	-0.000075	-0.001005	10.540071	-153.377411	3003.234698	-988.431942
144.89	-0.000083	-0.001051	10.540070	-144.997469	2810.305990	-988.456082
145.40	-0.000062	-0.001060	10.540072	-143.403040	2773.653723	-988.407482
145.91	-0.000074	-0.001123	10.540075	-131.745416	2505.349328	-988.359690
146.42	-0.000061	-0.001128	10.540067	-130.832251	2484.156031	-988.524283
146.93	-0.000070	-0.001158	10.540067	-125.302942	2356.881670	-988.516229
147.44	-0.000056	-0.001128	10.540071	-130.856098	2484.784363	-988.448548
147.95	-0.000053	-0.001130	10.540097	-130.522466	2477.716184	-987.864855
148.46	-0.000061	-0.001102	10.540082	-135.576160	2593.697359	-988.201691
148.97	-0.000065	-0.001125	10.536278	-131.474136	2411.533872	-1071.893799
149.48	-0.000074	-0.001113	10.536364	-133.580935	2462.036130	-1069.981736
149.99	-0.000102	-0.001146	10.535096	-132.932230	2417.842115	-1097.893992
150.50	-0.000095	-0.001115	10.535105	-138.369704	2543.216189	-1097.698180
151.01	-0.000117	-0.001103	10.535110	-140.647136	2595.769522	-1097.576424
151.52	-0.000103	-0.001023	10.536397	-154.876391	2952.995924	-1069.270430
152.03	-0.000119	-0.000975	10.535110	-163.557713	3123.170109	-1097.569806
152.54	-0.000102	-0.000890	10.535110	-178.722251	3472.249391	-1097.572852
153.05	-0.000127	-0.000850	10.535105	-185.900425	3637.360669	-1097.694795
153.56	-0.000097	-0.000788	10.535097	-163.137262	3113.188450	-1097.858848
154.07	-0.000108	-0.000783	10.535090	-158.293698	3001.529176	-1098.013480
154.59	-0.000082	-0.000737	10.535089	-161.500053	3075.317080	-1098.033787
155.10	-0.000087	-0.000761	10.535108	-109.199416	1871.801567	-1097.626219
155.61	-0.000061	-0.000740	10.535095	-93.649411	1513.551471	-1097.906944
156.12	-0.000063	-0.000766	10.535114	-85.128145	1317.834938	-1097.487135
156.63	-0.000052	-0.000762	10.535091	-86.462260	1348.017762	-1097.990857
157.14	-0.000058	-0.000789	10.535079	-77.342983	1137.804487	-1098.268093
157.65	-0.000058	-0.000765	10.535069	-85.370890	1322.369733	-1098.491710
158.16	-0.000066	-0.000783	10.535071	-79.639425	1190.490652	-1098.437065
158.67	-0.000054	-0.000757	10.535065	-88.098923	1385.094579	-1098.561853
159.18	-0.000068	-0.000777	10.535064	-81.567224	1234.695238	-1098.601797
159.69	-0.000071	-0.000756	10.535067	12.815531	-937.882031	-1098.524091
160.20	-0.000084	-0.000783	10.535070	53.677388	-1878.451908	-1098.470585
160.71	-0.000083	-0.000767	10.535073	557.126903	-13467.611765	-1098.398321
161.22	-0.000113	-0.000789	10.535075	826.415451	-19666.492499	-1098.351081
161.73	-0.000094	-0.000767	10.535067	2204.435065	-51388.220157	-1098.529959
162.24	-0.000119	-0.000788	10.535067	-Inf	Inf	-1098.533841
162.75	-0.000094	-0.000772	10.535071	-Inf	Inf	-1098.445855
163.26	-0.000104	-0.000799	10.535068	-Inf	Inf	-1098.494688
163.77	-0.000077	-0.000789	10.535065	-163.894865	3129.890655	-1098.562416
164.28	-0.000087	-0.000815	10.535066	-146.082145	2719.858830	-1098.552023
164.79	-0.000070	-0.000822	10.535082	-124.450226	2222.283674	-1098.185507
165.30	-0.000077	-0.000873	10.535067	136.744927	-3790.689853	-1098.519826
165.81	-0.000056	-0.000892	10.535068	13.089120	-944.163145	-1098.508044
166.32	-0.000068	-0.000949	10.535105	96.354468	-2860.055788	-1097.699915
166.83	-0.000057	-0.000932	10.535078	656.934372	-15765.026387	-1098.284643
167.34	-0.000052	-0.000957	10.535090	346.050836	-8608.307544	-1098.011640
167.85	-0.000063	-0.000908	10.535095	33.469485	-1412.692685	-1097.917115
168.36	-0.000079	-0.000914	10.535080	71.769842	-2294.689427	-1098.237265
168.87	-0.000054	-0.000833	10.535104	-85.567114	1327.694007	-1097.721656
169.38	-0.000100	-0.000820	10.535088	-130.724849	2366.840317	-1098.073931
169.89	-0.000083	-0.000724	10.535071	-113.738436	1975.444021	-1098.431530
170.40	-0.000086	-0.000708	10.535072	-69.310281	952.744999	-1098.410630
170.91	-0.000082	-0.000629	10.535073	-192.061777	3778.459528	-1098.394340
171.42	-0.000097	-0.000637	10.535075	-179.164378	3481.612637	-1098.349689
171.93	-0.000070	-0.000590	10.535080	-167.938129	3223.303917	-1098.239320
172.44	-0.000087	-0.000611	10.535075	-192.649103	3792.036225	-1098.340297
172.95	-0.000086	-0.000587	10.535078	-199.697855	3954.345131	-1098.293525
173.46	-0.000086	-0.000631	10.535088	-120.799857	2138.374583	-1098.069940
173.97	-0.000066	-0.000629	10.535093	-189.062675	3709.892279	-1097.945005
174.48	-0.000094	-0.000687	10.535077	-114.993131	2004.456691	-1098.307519
174.99	-0.000061	-0.000688	10.535073	-137.270907	2517.183734	-1098.402648
175.50	-0.000069	-0.000734	10.535082	-80.133921	1202.122756	-1098.199576
176.01	-0.000069	-0.000724	10.535104	-147.912988	2762.884152	-1097.712646
176.52	-0.000076	-0.000744	10.535127	-55.509465	636.313144	-1097.210434
177.03	-0.000061	-0.000714	10.535084	-116.498684	2039.275497	-1098.153454
177.54	-0.000085	-0.000700	10.535087	-43.816233	366.225089	-1098.082152
178.05	-0.000064	-0.000632	10.535098	-93.020166	1499.126884	-1097.849325
178.56	-0.000072	-0.000605	10.535098	15.494746	-998.843342	-1097.843657
179.07	-0.000064	-0.000547	10.535084	-47.521062	451.443515	-1098.144607
179.58	-0.000079	-0.000539	10.535089	43.473379	-1643.121065	-1098.052732
180.09	-0.000065	-0.000500	10.535078	-42.096616	326.423719	-1098.288558
180.61	-0.000076	-0.000521	10.535081	38.499642	-1528.811262	-1098.228168
181.12	-0.000069	-0.000516	10.535109	-12.713534	-349.255031	-1097.611539
181.63	-0.000079	-0.000572	10.535092	110.525269	-3186.556351	-1097.979965
182.14	-0.000073	-0.000593	10.535122	148.517463	-4060.416747	-1097.305621
182.65	-0.000086	-0.000652	10.535766	130.322025	-3626.719755	-1083.145650
183.16	-0.000072	-0.000665	10.535137	110.634178	-3188.025124	-1096.989541
183.67	-0.000082	-0.000721	10.535123	88.746519	-2684.493548	-1097.289877
184.18	-0.000072	-0.000719	10.535132	-29.478432	37.198020	-1097.105162
184.69	-0.000088	-0.000748	10.535124	5.637092	-771.319106	-1097.267120
185.20	-0.000056	-0.000725	10.535117	-66.540875	890.018671	-1097.433401
185.71	-0.000074	-0.000739	10.535094	-23.045515	-111.742169	-1097.922311
186.22	-0.000060	-0.000711	10.538149	-75.077761	1156.460601	-1030.730890
186.73	-0.000070	-0.000738	10.537832	-20.727463	-101.975169	-1037.704429
187.24	-0.000062	-0.000736	10.536277	-83.909153	1316.595224	-1071.902401
187.75	-0.000080	-0.000789	10.537216	17.444639	-994.885846	-1051.251736
188.26	-0.000063	-0.000787	10.539906	-17.845096	-120.481537	-992.065077
188.77	-0.000076	-0.000812	10.539872	97.146487	-2768.325165	-992.806001
189.28	-0.000067	-0.000768	10.539899	47.098522	-1615.618364	-992.214802
189.79	-0.000072	-0.000741	10.539901	196.763238	-5060.809751	-992.177443
190.30	-0.000063	-0.000664	10.539904	121.439311	-3326.809370	-992.111280
190.81	-0.000071	-0.000616	10.539907	184.741435	-4783.938331	-992.049967
191.32	-0.000059	-0.000536	10.539898	67.811374	-2092.456612	-992.248642
191.83	-0.000077	-0.000529	10.539866	62.981535	-1982.002263	-992.942047
192.34	-0.000066	-0.000503	10.539031	-4.946564	-437.592899	-1011.325919
192.85	-0.000076	-0.000554	10.539791	115.771333	-3198.934533	-994.591512
193.36	-0.000066	-0.000583	10.539883	40.685629	-1468.377003	-992.578478
193.87	-0.000078	-0.000659	10.537334	67.185547	-2137.168160	-1048.641489
194.38	-0.000065	-0.000683	10.539881	20.744619	-1009.374294	-992.609502
194.89	-0.000069	-0.000740	10.539890	51.908302	-1726.559454	-992.426190
195.40	-0.000060	-0.000728	10.539904	-54.257167	717.673573	-992.101636
195.91	-0.000072	-0.000732	10.539897	3.371938	-609.094538	-992.259803
196.42	-0.000054	-0.000683	10.539892	-85.737450	1442.046537	-992.380532
196.93	-0.000074	-0.000668	10.539901	-25.078522	45.921218	-992.168345
197.44	-0.000063	-0.000617	10.539913	-77.486019	1252.594620	-991.910076
197.95	-0.000079	-0.000612	10.539920	9.919298	-759.299573	-991.770503
198.46	-0.000068	-0.000578	10.539893	-47.438205	560.434747	-992.357898
198.97	-0.000074	-0.000593	10.534883	34.546815	-1442.367277	-1102.567237
199.48	-0.000064	-0.000565	10.534859	-16.686908	-263.552821	-1103.109365
199.99	-0.000075	-0.000581	10.534832	118.060399	-3366.001112	-1103.692554
200.50	-0.000055	-0.000539	10.534894	9.692545	-869.977918	-1102.326324
201.01	-0.000072	-0.000544	10.534901	77.508135	-2430.902916	-1102.167315
201.52	-0.000054	-0.000501	10.534913	88.115589	-2674.820591	-1101.917124
202.03	-0.000068	-0.000518	10.531498	21.516661	-1220.481794	-1177.033079
202.54	-0.000062	-0.000508	10.530814	-57.017372	571.549937	-1192.099870
203.05	-0.000071	-0.000563	10.530117	116.850356	-3446.888915	-1207.422664
203.56	-0.000058	-0.000566	10.530107	-90.426001	1324.313790	-1207.640268
204.07	-0.000072	-0.000608	10.530096	-17.365218	-357.778674	-1207.886590
204.58	-0.000048	-0.000589	10.533356	-37.325497	176.879521	-1136.172582
205.09	-0.000063	-0.000609	10.534868	-10.871282	-397.216429	-1102.908925
205.60	-0.000061	-0.000595	10.534909	-68.877011	939.008807	-1101.999672
206.12	-0.000063	-0.000626	10.534909	53.892647	-1887.112054	-1102.004756
206.63	-0.000053	-0.000619	10.532954	-26.567503	-80.036227	-1145.015679
207.14	-0.000074	-0.000654	10.532116	-5.141118	-592.576498	-1163.437708
207.65	-0.000057	-0.000638	10.531259	-13.643748	-416.627232	-1182.304378
208.16	-0.000072	-0.000666	10.530120	107.378839	-3228.803444	-1207.370779
208.67	-0.000066	-0.000631	10.530129	-42.792874	228.309189	-1207.169329
209.18	-0.000065	-0.000638	10.530109	118.641051	-3488.303542	-1207.607176
209.69	-0.000049	-0.000609	10.530124	48.527986	-1873.979603	-1207.277924
210.20	-0.000061	-0.000640	10.532724	67.031399	-2239.948076	-1150.068650
210.71	-0.000049	-0.000653	10.530105	38.419148	-1641.710961	-1207.691309
211.22	-0.000059	-0.000724	10.530101	183.973570	-4992.411529	-1207.774833
211.73	-0.000051	-0.000742	10.530102	43.791325	-1765.451391	-1207.762603
212.24	-0.000068	-0.000777	10.532855	193.380560	-5145.444574	-1147.189786
212.75	-0.000051	-0.000737	10.530103	109.144669	-3269.841246	-1207.741846
213.26	-0.000068	-0.000731	10.532123	162.221495	-4445.044947	-1163.283498
213.77	-0.000059	-0.000686	10.531031	40.838614	-1676.056738	-1187.325900
214.28	-0.000064	-0.000683	10.530094	124.090302	-3614.082815	-1207.930910
214.79	-0.000058	-0.000650	10.530073	36.267542	-1592.906900	-1208.383044
215.30	-0.000070	-0.000655	10.530072	79.598471	-2590.407639	-1208.418887
215.81	-0.000051	-0.000605	10.530073	-0.330863	-750.435038	-1208.393445
216.32	-0.000061	-0.000597	10.530073	20.521100	-1230.437311	-1208.390788
216.83	-0.000049	-0.000542	10.530086	-61.034915	647.250076	-1208.108611
217.34	-0.000058	-0.000534	10.530082	-11.010172	-504.401216	-1208.202879
217.85	-0.000045	-0.000498	10.530070	-71.064575	877.767235	-1208.454090
218.36	-0.000056	-0.000524	10.530058	-17.091821	-364.960026	-1208.733511
218.87	-0.000042	-0.000506	10.530061	-86.049556	1222.498658	-1208.661779
219.38	-0.000057	-0.000545	10.530054	89.945944	-2829.007865	-1208.805162
219.89	-0.000038	-0.000530	10.530053	-25.570503	-169.889431	-1208.834398
220.40	-0.000055	-0.000562	10.530054	69.588737	-2360.388850	-1208.802221
220.91	-0.000040	-0.000535	10.530056	-0.323178	-751.010846	-1208.773961
221.42	-0.000050	-0.000545	10.530061	47.683902	-1856.002374	-1208.664227
221.93	-0.000045	-0.000512	10.530067	-58.801522	595.404756	-1208.522002
222.44	-0.000056	-0.000511	10.530057	17.241650	-1155.324101	-1208.751956
222.95	-0.000046	-0.000466	10.530057	-70.476921	863.935755	-1208.743978
223.46	-0.000056	-0.000468	10.530056	-32.447237	-11.519008	-1208.767294
223.97	-0.000042	-0.000430	10.530055	-76.753305	1008.370798	-1208.787068
224.48	-0.000053	-0.000455	10.530057	-20.882426	-277.720745	-1208.751782
224.99	-0.000043	-0.000446	10.530055	-61.266427	651.867783	-1208.787414
225.50	-0.000051	-0.000492	10.530064	29.437498	-1435.906410	-1208.597480
226.01	-0.000038	-0.000496	10.530055	-53.848708	481.100742	-1208.800473
226.52	-0.000045	-0.000549	10.530052	27.815425	-1398.832187	-1208.850581
227.03	-0.000036	-0.000566	10.530054	-9.546414	-538.744507	-1208.821078
227.54	-0.000050	-0.000628	10.530055	82.179266	-2650.198878	-1208.783493
228.05	-0.000034	-0.000629	10.530056	15.911390	-1124.723555	-1208.772533
228.56	-0.000055	-0.000672	10.530056	118.739222	-3491.778804	-1208.766554
229.07	-0.000041	-0.000658	10.530072	81.449296	-2633.020200	-1208.425764
229.58	-0.000052	-0.000670	10.530059	155.089622	-4328.480268	-1208.697581
230.09	-0.000041	-0.000636	10.530055	48.401937	-1872.664765	-1208.791560
230.60	-0.000052	-0.000651	10.530059	194.523635	-5236.241039	-1208.700715
231.11	-0.000036	-0.000635	10.530059	38.049282	-1634.265712	-1208.710968
231.62	-0.000050	-0.000665	10.530058	124.196332	-3617.364347	-1208.732930
232.14	-0.000032	-0.000648	10.530058	22.561991	-1277.770712	-1208.727329
232.65	-0.000044	-0.000665	10.530056	88.084559	-2786.128840	-1208.775991
233.16	-0.000030	-0.000626	10.530055	33.425140	-1527.898055	-1208.785862
233.67	-0.000046	-0.000626	10.530061	92.659631	-2891.331482	-1208.667305
234.18	-0.000031	-0.000596	10.530061	11.206141	-1016.283928	-1208.651953
234.69	-0.000047	-0.000618	10.530064	155.458478	-4336.870151	-1208.601177
235.20	-0.000036	-0.000614	10.530075	37.901999	-1630.486252	-1208.339852
235.71	-0.000053	-0.000664	10.530092	202.639234	-5422.299070	-1207.975483
236.22	-0.000040	-0.000660	10.530116	90.316104	-2836.102501	-1207.444581
236.73	-0.000051	-0.000696	10.530093	154.109793	-4305.139925	-1207.948761
237.24	-0.000035	-0.000669	10.530099	72.987909	-2437.598544	-1207.811988
237.75	-0.000043	-0.000670	10.530101	168.144738	-4628.040261	-1207.777712
238.26	-0.000029	-0.000610	10.530868	33.514220	-1511.213186	-1190.914011
238.77	-0.000040	-0.000589	10.532528	197.840426	-5255.646743	-1154.379919
239.28	-0.000027	-0.000525	10.532559	28.237646	-1350.748287	-1153.711748
239.79	-0.000035	-0.000509	10.532219	29.724038	-1392.795140	-1161.181411
240.30	-0.000023	-0.000464	10.531848	-12.459019	-430.312570	-1169.343949
240.81	-0.000034	-0.000482	10.531862	63.315062	-2174.283017	-1169.035845
241.32	-0.000028	-0.000468	10.532672	-59.178234	664.155554	-1151.212333
241.83	-0.000047	-0.000509	10.532089	54.067321	-1956.168008	-1164.041996
242.34	-0.000032	-0.000495	10.530120	-38.247027	123.456087	-1207.368954
242.85	-0.000051	-0.000511	10.533160	-0.532348	-674.590759	-1140.469535
243.36	-0.000041	-0.000475	10.533962	-16.401910	-290.787449	-1122.830469
243.87	-0.000047	-0.000462	10.533363	72.631398	-2354.124634	-1136.014287
244.38	-0.000037	-0.000398	10.532627	-53.589717	534.472801	-1152.201524
244.89	-0.000051	-0.000369	10.533141	-6.414642	-539.623197	-1140.890038
245.40	-0.000031	-0.000313	10.532886	-106.914416	1767.961596	-1146.504365
245.91	-0.000045	-0.000312	10.535104	-68.165659	927.129612	-1097.711022
246.42	-0.000025	-0.000302	10.535102	-143.245339	2655.401353	-1097.746147
246.93	-0.000041	-0.000356	10.535096	-34.122122	143.275881	-1097.885742
247.44	-0.000023	-0.000385	10.539868	-88.269031	1499.782730	-992.895578
247.95	-0.000035	-0.000465	10.539868	8.857667	-736.040142	-992.895114
248.46	-0.000021	-0.000491	10.539892	-0.875633	-511.428908	-992.366653
248.97	-0.000033	-0.000566	10.539906	91.248817	-2631.780183	-992.059453
249.48	-0.000030	-0.000589	10.537940	30.517086	-1279.096698	-1035.309686
249.99	-0.000042	-0.000638	10.538177	214.894657	-5517.949076	-1030.104955
250.50	-0.000034	-0.000636	10.537566	122.151892	-3397.131178	-1043.544358
251.01	-0.000044	-0.000654	10.534927	251.503818	-6435.630864	-1101.601495
251.52	-0.000032	-0.000622	10.534918	129.213169	-3620.754693	-1101.804424
252.03	-0.000047	-0.000624	10.534899	270.396451	-6871.183293	-1102.221987
252.54	-0.000033	-0.000577	10.534891	116.292552	-3323.956659	-1102.405531
253.05	-0.000040	-0.000580	10.534896	263.988665	-6723.755645	-1102.295830
253.56	-0.000028	-0.000540	10.534908	77.159631	-2422.720099	-1102.014323
254.07	-0.000036	-0.000544	10.534909	295.267907	-7443.477425	-1101.994698
254.58	-0.000025	-0.000501	10.534901	63.858097	-2116.701350	-1102.184144
255.09	-0.000034	-0.000516	10.534927	233.101539	-6012.013038	-1101.598009
255.60	-0.000028	-0.000495	10.534939	98.192720	-2906.198027	-1101.349853
256.11	-0.000038	-0.000510	10.534924	160.970478	-4351.661048	-1101.674665
256.62	-0.000025	-0.000502	10.534918	56.928111	-1956.779691	-1101.806623
257.13	-0.000042	-0.000536	10.534928	176.082398	-4699.439175	-1101.585857
257.65	-0.000028	-0.000515	10.534926	66.484433	-2176.580670	-1101.632752
258.16	-0.000039	-0.000549	10.532626	231.705714	-6032.947062	-1152.217393
258.67	-0.000024	-0.000526	10.531751	96.728396	-2946.017463	-1171.488280
259.18	-0.000034	-0.000533	10.534894	210.101476	-5483.325584	-1102.328825
259.69	-0.000015	-0.000499	10.534902	92.994116	-2787.371138	-1102.154192
260.20	-0.000034	-0.000497	10.534914	231.499944	-5975.457864	-1101.896581
260.71	-0.000012	-0.000436	10.534914	89.647865	-2710.074400	-1101.899319
261.22	-0.000035	-0.000420	10.534917	176.964452	-4720.003350	-1101.833481
261.73	-0.000022	-0.000347	10.534910	-35.349261	167.221084	-1101.990511
262.24	-0.000032	-0.000337	10.534913	94.251680	-2816.064226	-1101.910352
262.75	-0.000027	-0.000292	10.534885	-103.087094	1725.961172	-1102.526270
263.26	-0.000041	-0.000298	10.534905	-17.507426	-243.604543	-1102.097998
263.77	-0.000025	-0.000277	10.534910	-102.421552	1711.216355	-1101.977082
264.28	-0.000041	-0.000291	10.534891	-28.069213	-0.791491	-1102.399130
264.79	-0.000027	-0.000270	10.534869	-107.929673	1837.068281	-1102.876746
265.30	-0.000039	-0.000296	10.534904	23.444307	-1186.313307	-1102.111241
265.81	-0.000019	-0.000279	10.534913	-94.832818	1536.584393	-1101.921657
266.32	-0.000035	-0.000326	10.534912	102.879568	-3014.707030	-1101.940659
266.83	-0.000021	-0.000342	10.534884	2.993045	-716.002015	-1102.559346
267.34	-0.000043	-0.000387	10.534877	229.285838	-5925.337580	-1102.705171
267.85	-0.000029	-0.000388	10.534886	34.118197	-1432.442763	-1102.512032
268.36	-0.000041	-0.000418	10.534886	252.006264	-6448.151065	-1102.511591
268.87	-0.000032	-0.000400	10.534891	34.590769	-1443.190857	-1102.387693
269.38	-0.000042	-0.000425	10.534903	180.681286	-4805.888436	-1102.143352
269.89	-0.000030	-0.000402	10.534913	-8.315064	-455.023958	-1101.920934
270.40	-0.000038	-0.000428	10.534910	130.163712	-3642.819857	-1101.979946
270.91	-0.000025	-0.000401	10.534898	6.694506	-800.874332	-1102.240691
271.42	-0.000038	-0.000414	10.534893	174.602399	-4666.175878	-1102.354480
271.93	-0.000021	-0.000378	10.534888	48.924648	-1773.240174	-1102.471936
272.44	-0.000031	-0.000376	10.534905	227.693597	-5888.031091	-1102.081673
272.95	-0.000023	-0.000326	10.534898	15.431214	-1002.005114	-1102.254764
273.46	-0.000038	-0.000319	10.534890	179.502886	-4779.061352	-1102.428827
273.97	-0.000026	-0.000285	10.532032	16.842588	-1100.573325	-1165.287739
274.48	-0.000039	-0.000319	10.532438	270.900090	-6939.539782	-1156.368399
274.99	-0.000023	-0.000320	10.529893	77.448554	-2545.035995	-1212.347759
275.50	-0.000028	-0.000379	10.528161	252.720074	-6619.673519	-1250.453471
276.01	-0.000018	-0.000386	10.529913	25.792633	-1355.480282	-1211.914589
276.52	-0.000033	-0.000412	10.529912	230.490379	-6067.567143	-1211.928693
277.03	-0.000016	-0.000365	10.529910	-26.906157	-142.431765	-1211.971447
277.54	-0.000036	-0.000359	10.529909	50.029518	-1913.505759	-1212.010625
278.05	-0.000021	-0.000310	10.529903	-49.735185	382.909029	-1212.138977
278.56	-0.000030	-0.000334	10.529913	58.899849	-2117.598940	-1211.916391
279.07	-0.000018	-0.000336	10.529926	-47.430182	330.381411	-1211.630778
279.58	-0.000029	-0.000395	10.529915	227.819442	-6006.022668	-1211.871050
280.09	-0.000012	-0.000412	10.529929	59.838574	-2138.840855	-1211.566095
280.60	-0.000029	-0.000457	10.529935	448.968551	-11096.346934	-1211.439332
281.11	-0.000016	-0.000441	10.529933	133.042256	-3823.861877	-1211.468144
281.62	-0.000036	-0.000456	10.529917	550.593865	-13436.131083	-1211.824892
282.13	-0.000026	-0.000425	10.529913	187.740232	-5083.454162	-1211.910352
282.64	-0.000032	-0.000440	10.529895	588.935833	-14319.257029	-1212.308479
283.15	-0.000027	-0.000412	10.529879	210.466779	-5607.392478	-1212.655338
283.67	-0.000036	-0.000431	10.529905	288.785761	-7409.668845	-1212.083169
284.18	-0.000027	-0.000409	10.529902	87.201021	-2769.343309	-1212.165414
284.69	-0.000029	-0.000434	10.529898	226.836487	-5983.779934	-1212.237878
285.20	-0.000017	-0.000401	10.527378	61.717342	-2240.925842	-1267.690421
285.71	-0.000028	-0.000411	10.501816	225.799962	-6607.584418	-1830.048747
286.22	-0.000019	-0.000380	10.498003	14.899235	-1840.664640	-1913.937855
286.73	-0.000033	-0.000393	10.508179	191.320090	-5667.113281	-1690.057202
287.24	-0.000016	-0.000371	10.505112	67.830246	-2895.154108	-1757.531474
287.75	-0.000029	-0.000398	10.505092	288.144837	-7967.190462	-1757.979661
288.26	-0.000019	-0.000391	10.497768	132.506189	-4553.344354	-1919.096440
288.77	-0.000034	-0.000437	10.497223	441.662209	-11682.592380	-1931.098674
289.28	-0.000022	-0.000445	10.495010	238.126544	-7048.301944	-1979.777340
289.79	-0.000035	-0.000507	10.494998	450.321245	-11933.238980	-1980.051707
290.30	-0.000027	-0.000510	10.494994	255.096195	-7439.316136	-1980.138530
290.81	-0.000039	-0.000547	10.494994	616.061842	-15748.605750	-1980.123156
291.32	-0.000023	-0.000529	10.495002	210.558341	-6413.883938	-1979.961068
291.83	-0.000030	-0.000549	10.495010	512.725189	-13369.473287	-1979.781606
292.34	-0.000017	-0.000531	10.495000	254.483891	-7425.070531	-1979.994880
292.85	-0.000030	-0.000536	10.495004	648.554465	-16496.355460	-1979.913923
293.36	-0.000022	-0.000492	10.495007	300.230800	-8477.993500	-1979.846817
293.87	-0.000034	-0.000486	10.495013	1066.692256	-26121.538253	-1979.717311
294.38	-0.000022	-0.000425	10.495013	216.918193	-6560.024880	-1979.712403
294.89	-0.000032	-0.000408	10.497995	1134.175924	-27606.217328	-1914.115458
295.40	-0.000023	-0.000353	10.502783	107.606730	-3864.523323	-1808.783047
295.91	-0.000033	-0.000341	10.502616	342.957032	-9286.040800	-1812.440349
296.42	-0.000027	-0.000301	10.504256	68.483597	-2929.939792	-1776.367056
296.93	-0.000040	-0.000314	10.504895	172.805648	-5316.666011	-1762.314421
297.44	-0.000021	-0.000297	10.504901	-20.191268	-873.795140	-1762.173332
297.95	-0.000041	-0.000342	10.504891	266.091746	-7464.160830	-1762.391450
298.46	-0.000021	-0.000326	10.576433	14.608334	-25.119179	-188.467565
298.97	-0.000036	-0.000364	10.533918	261.486548	-6688.715211	-1123.813487
299.48	-0.000021	-0.000350	10.451133	51.667966	-3768.022273	-2945.065402
299.99	-0.000029	-0.000374	10.159916	522.100245	-21313.577166	-9351.839887
300.50	-0.000018	-0.000359	10.159915	106.775865	-11752.972383	-9351.859311
301.01	-0.000033	-0.000388	10.159914	457.580805	-19828.413566	-9351.889330
301.52	-0.000017	-0.000381	10.483168	54.304762	-3089.903192	-2240.303878
302.03	-0.000029	-0.000428	10.483427	311.643177	-9007.760804	-2234.595081
302.54	-0.000022	-0.000424	10.483021	112.342330	-4429.300454	-2243.539826
303.05	-0.000028	-0.000460	10.482824	287.852376	-8474.021040	-2247.869944
303.56	-0.000022	-0.000447	10.483314	131.005257	-4852.147954	-2237.085039
304.07	-0.000034	-0.000464	10.482468	336.113110	-9593.170286	-2255.695458
304.58	-0.000024	-0.000449	10.482868	177.531694	-5933.456583	-2246.896876
305.09	-0.000036	-0.000483	10.484888	512.048907	-13587.340049	-2202.456004
305.60	-0.000026	-0.000473	10.484890	206.688721	-6558.012164	-2202.417027
306.11	-0.000032	-0.000504	10.484893	735.978741	-18742.032218	-2202.364416
306.62	-0.000021	-0.000466	10.484889	317.940991	-9119.024364	-2202.438963
307.13	-0.000030	-0.000449	10.484886	527.814872	-13950.332658	-2202.518469
307.64	-0.000014	-0.000373	10.484891	96.470308	-4020.807166	-2202.402877
308.15	-0.000028	-0.000328	10.484912	211.095914	-6658.960286	-2201.936300
308.66	-0.000014	-0.000257	10.484904	-48.964599	-672.640279	-2202.111875
309.18	-0.000028	-0.000255	10.484908	140.181768	-5026.629523	-2202.020832
309.69	-0.000016	-0.000234	10.484911	26.604526	-2412.049039	-2201.952908
310.20	-0.000032	-0.000281	10.484908	347.032464	-9788.272793	-2202.031351
310.71	-0.000017	-0.000293	10.484904	56.254201	-3094.740731	-2202.111546
311.22	-0.000031	-0.000332	10.484903	545.744334	-14362.669836	-2202.143684
311.73	-0.000020	-0.000317	10.484897	43.312587	-2796.980326	-2202.255700
312.24	-0.000033	-0.000338	10.481796	356.366498	-10074.899941	-2270.484418
312.75	-0.000025	-0.000306	10.481916	104.474297	-4273.669440	-2267.853353
313.26	-0.000029	-0.000339	10.482323	502.712286	-13431.590957	-2258.904989
313.77	-0.000018	-0.000326	10.480116	146.788143	-5289.217463	-2307.438262
314.28	-0.000035	-0.000359	10.480109	938.221953	-23507.916621	-2307.594316
314.79	-0.000015	-0.000350	10.480134	196.320815	-6429.030862	-2307.045493
315.30	-0.000032	-0.000382	10.480095	708.375908	-18217.262273	-2307.902410
315.81	-0.000012	-0.000369	10.480100	111.983209	-4488.403025	-2307.803838
316.32	-0.000025	-0.000400	10.480081	347.791370	-9917.068334	-2308.225584
316.83	-0.000019	-0.000375	10.480096	176.203134	-5966.822730	-2307.898287
317.34	-0.000029	-0.000387	10.480107	302.294025	-8869.117004	-2307.636044
317.85	-0.000015	-0.000354	10.480096	97.226137	-4148.798574	-2307.897616
318.36	-0.000027	-0.000370	10.480096	267.140196	-8060.160681	-2307.896275
318.87	-0.000018	-0.000348	10.480083	195.604742	-6413.719491	-2308.163824
319.38	-0.000026	-0.000363	10.480080	577.214052	-15198.312218	-2308.237242
319.89	-0.000018	-0.000335	10.480093	184.674119	-6161.875211	-2307.949123
320.40	-0.000021	-0.000339	10.480108	442.120542	-12087.860705	-2307.621837
320.91	-0.000015	-0.000312	10.480097	77.127635	-3686.106423	-2307.867556
321.42	-0.000022	-0.000337	10.490424	587.617501	-15199.224365	-2080.662496
321.93	-0.000007	-0.000346	10.495412	181.137351	-5727.154860	-1970.929536
322.44	-0.000027	-0.000409	10.487026	593.873652	-15421.615308	-2155.426208
322.95	-0.000013	-0.000416	10.487369	195.159092	-6235.425181	-2147.873816
323.46	-0.000028	-0.000465	10.487475	592.231058	-15373.441588	-2145.542078
323.97	-0.000020	-0.000451	10.443265	222.580616	-7883.838881	-3118.166601
324.48	-0.000037	-0.000458	10.455884	402.482773	-11734.096831	-2840.553362
324.99	-0.000027	-0.000417	10.427521	128.695094	-6085.744148	-3464.546599
325.50	-0.000034	-0.000415	10.281536	438.011006	-16572.958319	-6676.218790
326.01	-0.000022	-0.000359	10.480597	188.453175	-6237.258906	-2296.875349
326.52	-0.000032	-0.000361	10.482549	590.853460	-15455.347166	-2253.922296
327.03	-0.000019	-0.000323	10.480132	140.852538	-5152.225598	-2307.098427
327.54	-0.000027	-0.000333	10.480133	330.837083	-9525.585493	-2307.079980
328.05	-0.000020	-0.000314	10.483024	65.646056	-3354.290802	-2243.465995
328.56	-0.000027	-0.000341	10.482820	344.818431	-9785.456077	-2247.961456
329.07	-0.000021	-0.000325	10.484895	101.631141	-4139.501858	-2202.301842
329.58	-0.000027	-0.000371	10.484903	370.662225	-10332.332890	-2202.137299
330.09	-0.000013	-0.000383	10.484890	178.733882	-5914.515697	-2202.430725
330.60	-0.000023	-0.000453	10.481387	387.433688	-10799.489473	-2279.483029
331.11	-0.000009	-0.000471	10.480112	173.346638	-5900.679450	-2307.528431
331.62	-0.000026	-0.000533	10.482074	766.029322	-19498.785109	-2264.367107
332.13	-0.000015	-0.000520	10.482811	219.109284	-6891.871972	-2248.149814
332.64	-0.000027	-0.000517	10.482890	743.402159	-18959.111421	-2246.429736
333.15	-0.000016	-0.000449	10.482757	216.774994	-6839.394419	-2249.348871
333.66	-0.000023	-0.000399	10.482921	502.221142	-13406.474272	-2245.730874
334.17	-0.000013	-0.000303	10.483057	126.541994	-4755.346606	-2242.752609
334.69	-0.000024	-0.000272	10.483147	335.899218	-9572.601310	-2240.771356
335.20	-0.000015	-0.000215	10.484883	-53.144434	-576.909132	-2202.576627
335.71	-0.000027	-0.000226	10.483852	229.442585	-7105.729749	-2225.245327
336.22	-0.000014	-0.000198	10.483004	-39.508396	-934.134137	-2243.907495
336.73	-0.000022	-0.000201	10.484912	64.662885	-3288.119762	-2201.934125
337.24	-0.000014	-0.000170	10.484912	-67.113344	-254.671171	-2201.929467
