Length [m]	OTDR [V]	Brillouin intensity [V]	Fitted Frequency [GHz]	Temperature [”]	Compensated Strain [レュ]	Uncompensated Strain [レュ]
0.51	0.006977	0.036040	10.504012	-152.472426	2081.712535	-1781.728735
1.02	0.007112	0.039245	10.475573	-128.205603	867.202267	-2407.391549
1.53	0.007039	0.041907	10.454954	-91.557074	-451.982769	-2861.019631
2.04	0.007093	0.044116	10.442880	-51.741821	-1646.963869	-3126.632198
2.55	0.007005	0.045899	10.435542	-26.353187	-2400.650645	-3288.079785
3.06	0.006952	0.047401	10.433023	-15.616993	-2705.886473	-3343.494341
3.57	0.006907	0.048656	10.430998	-23.053466	-2581.402023	-3388.042289
4.08	0.006901	0.049743	10.430152	-26.033091	-2532.320882	-3406.651847
4.59	0.006910	0.050662	10.430234	-16.689237	-2745.515254	-3404.841373
5.10	0.006945	0.051429	10.429742	6.819505	-3298.042804	-3415.681886
5.61	0.006947	0.052004	10.429343	25.533248	-3738.011808	-3424.443562
6.12	0.006950	0.052427	10.428784	35.250077	-3974.601159	-3436.759690
6.63	0.006904	0.052690	10.428785	26.672314	-3777.108794	-3436.726115
7.14	0.006893	0.052889	10.428462	12.053558	-3448.051506	-3443.843637
7.65	0.006878	0.053037	10.428847	-0.937570	-3140.113225	-3435.366336
8.16	0.006902	0.053165	10.429485	3.628590	-3230.506861	-3421.326939
8.67	0.006928	0.053268	10.429080	19.160140	-3597.391815	-3430.249766
9.18	0.007003	0.053343	10.428822	42.229171	-4134.368576	-3435.911716
9.69	0.006987	0.053334	10.428908	54.711391	-4419.736567	-3434.034005
10.20	0.006974	0.053264	10.429298	57.050712	-4464.575319	-3425.437777
10.71	0.006909	0.053149	10.429537	46.983256	-4227.320198	-3420.185831
11.22	0.006872	0.053071	10.429192	40.492425	-4085.853498	-3427.769387
11.73	0.006846	0.053009	10.429356	40.611098	-4084.810186	-3424.168291
12.24	0.006880	0.053028	10.428684	51.641805	-4354.227702	-3438.948474
12.75	0.006910	0.053061	10.427114	57.504784	-4525.397330	-3473.485426
13.26	0.006955	0.053079	10.427087	59.599674	-4574.245420	-3474.081090
13.77	0.006921	0.053019	10.427606	50.813450	-4360.028604	-3462.671483
14.28	0.006890	0.052930	10.428831	41.369850	-4114.377793	-3435.711861
14.79	0.006835	0.052819	10.429860	31.023828	-3852.498422	-3413.087643
15.30	0.006822	0.052762	10.428978	27.255358	-3786.094508	-3432.494823
15.81	0.006812	0.052762	10.428335	24.231688	-3731.316334	-3446.637106
16.32	0.006848	0.052818	10.428709	25.417904	-3749.980557	-3438.393388
16.83	0.006806	0.052853	10.429084	22.399403	-3671.861037	-3430.156738
17.34	0.006745	0.052854	10.429531	23.219401	-3680.421771	-3420.316890
17.85	0.006601	0.052785	10.428554	24.834488	-3740.136268	-3441.813863
18.36	0.006478	0.052726	10.427650	29.215930	-3861.836366	-3461.694000
18.87	0.006340	0.052667	10.428879	31.998533	-3897.563204	-3434.672025
19.38	0.006294	0.052658	10.429273	33.808483	-3930.133432	-3425.997040
19.89	0.006244	0.052656	10.429214	34.106169	-3938.340934	-3427.289447
20.40	0.006255	0.052656	10.430118	34.926901	-3936.381965	-3407.398689
20.91	0.006207	0.052605	10.430899	37.812917	-3984.815448	-3390.226836
21.42	0.006171	0.052523	10.431617	46.572690	-4169.908845	-3374.436296
21.93	0.006093	0.052429	10.432733	47.238835	-4159.498800	-3349.878515
22.44	0.006066	0.052386	10.433068	50.993516	-4238.199924	-3342.504484
22.95	0.006023	0.052371	10.433406	42.398129	-4032.540458	-3335.067290
23.46	0.006052	0.052429	10.433138	36.577728	-3904.734314	-3340.960017
23.97	0.006080	0.052504	10.432615	34.419076	-3867.117532	-3352.478089
24.48	0.006099	0.052591	10.432109	32.556026	-3835.891446	-3363.601290
24.99	0.006102	0.052644	10.432238	33.625519	-3857.528592	-3360.756532
25.50	0.006101	0.052687	10.432137	39.424970	-3993.377416	-3362.995771
26.02	0.006050	0.052702	10.432656	38.273840	-3954.892287	-3351.561780
26.53	0.006080	0.052744	10.432384	36.219940	-3913.887478	-3357.547798
27.04	0.006057	0.052756	10.432376	32.943020	-3838.644791	-3357.729874
27.55	0.006091	0.052783	10.432660	30.145395	-3767.693351	-3351.480782
28.06	0.006118	0.052755	10.432521	28.362518	-3729.868343	-3354.548742
28.57	0.006139	0.052687	10.433097	34.693472	-3862.308835	-3341.865713
29.08	0.006112	0.052565	10.433230	34.638896	-3857.983988	-3338.938617
29.59	0.006110	0.052447	10.432281	40.976881	-4025.764230	-3359.811974
30.10	0.006048	0.052328	10.431817	37.690008	-3960.800088	-3370.017365
30.61	0.006052	0.052275	10.432181	33.920308	-3865.636016	-3362.017089
31.12	0.006043	0.052261	10.432736	35.083739	-3879.623408	-3349.812469
31.63	0.006070	0.052279	10.433017	33.367096	-3833.632740	-3343.636746
32.14	0.006083	0.052303	10.432980	31.333090	-3787.652442	-3344.439774
32.65	0.006099	0.052319	10.433635	37.458297	-3913.542580	-3330.026248
33.16	0.006060	0.052325	10.434373	32.867104	-3790.844689	-3313.800132
33.67	0.006078	0.052351	10.435079	37.333326	-3877.356725	-3298.252547
34.18	0.006040	0.052369	10.435036	32.908507	-3776.498323	-3299.205912
34.69	0.006055	0.052432	10.434871	34.729689	-3822.235284	-3302.844063
35.20	0.006080	0.052470	10.436078	27.860365	-3636.265689	-3276.287244
35.71	0.006102	0.052530	10.436404	32.078842	-3725.853029	-3269.113357
36.22	0.006108	0.052514	10.436804	29.117475	-3648.449002	-3260.304647
36.73	0.006126	0.052511	10.437692	33.787748	-3735.480164	-3240.771595
37.24	0.006075	0.052433	10.437521	36.041585	-3791.317827	-3244.544385
37.75	0.006078	0.052389	10.437365	38.205180	-3844.724567	-3247.979900
38.26	0.006055	0.052315	10.438072	38.005371	-3823.815037	-3232.421719
38.77	0.006075	0.052292	10.437758	37.348757	-3815.942198	-3239.330073
39.28	0.006076	0.052257	10.437148	35.165611	-3779.759748	-3252.754220
39.79	0.006108	0.052248	10.436252	34.981493	-3796.185516	-3272.465817
40.30	0.006088	0.052200	10.436706	34.475331	-3774.048989	-3262.464253
40.81	0.006095	0.052169	10.437236	36.761753	-3814.468764	-3250.814327
41.32	0.006058	0.052107	10.437097	36.901918	-3820.888258	-3253.860101
41.83	0.006062	0.052068	10.437459	37.445173	-3825.058232	-3245.908764
42.34	0.006045	0.052029	10.437969	35.865854	-3776.944923	-3234.692813
42.85	0.006072	0.052028	10.438990	34.462120	-3721.069301	-3212.216763
43.36	0.006070	0.052007	10.439125	30.248572	-3620.974614	-3209.259413
43.87	0.006095	0.051998	10.439099	31.046542	-3639.935811	-3209.824317
44.38	0.006076	0.051968	10.438440	31.537465	-3666.422295	-3224.309946
44.89	0.006085	0.051930	10.438258	34.777998	-3745.221313	-3228.319257
45.40	0.006055	0.051882	10.438910	36.426959	-3768.152087	-3213.984219
45.91	0.006069	0.051872	10.439870	37.802360	-3777.664268	-3192.856085
46.42	0.006057	0.051855	10.440253	35.799626	-3722.743037	-3184.443629
46.93	0.006087	0.051869	10.439823	34.273127	-3697.508914	-3193.892404
47.44	0.006076	0.051870	10.439711	31.826634	-3643.786247	-3196.367556
47.95	0.006091	0.051875	10.440466	33.737375	-3670.341800	-3179.741894
48.46	0.006063	0.051853	10.440102	35.243852	-3713.421897	-3187.756135
48.97	0.006065	0.051837	10.441563	38.129334	-3746.153590	-3155.618018
49.48	0.006041	0.051798	10.446867	38.569926	-3633.960601	-3038.921783
49.99	0.006060	0.051763	10.466592	38.890184	-3186.415667	-2604.974001
50.50	0.006056	0.051653	10.501200	36.099124	-2323.993831	-1843.593107
51.01	0.006079	0.051448	10.533908	36.934186	-1588.880687	-1124.028158
51.53	0.006063	0.051079	10.555334	37.596970	-1109.980899	-652.649430
52.04	0.006081	0.050556	10.560283	41.873838	-1094.300785	-543.778187
52.55	0.006052	0.049883	10.563312	43.979663	-1072.903572	-477.126392
53.06	0.006059	0.049136	10.565093	46.462601	-1089.005046	-437.963892
53.57	0.006045	0.048367	10.565517	43.205328	-1004.233113	-428.624569
54.08	0.006062	0.047631	10.566091	40.355987	-925.411143	-416.003341
54.59	0.006057	0.046949	10.566813	34.259326	-768.408881	-400.112048
55.10	0.006071	0.046355	10.567218	32.375701	-715.713713	-391.207546
55.61	0.006063	0.045829	10.567616	30.300582	-658.769027	-382.454370
56.12	0.006071	0.045399	10.567899	31.491891	-679.651999	-376.215315
56.63	0.006047	0.045040	10.567896	30.205645	-650.115952	-376.284848
57.14	0.006052	0.044769	10.568061	30.583255	-655.010195	-372.661712
57.65	0.006040	0.044562	10.568259	27.138995	-571.157115	-368.304862
58.16	0.006057	0.044424	10.568989	24.289439	-488.728898	-352.248333
58.67	0.006038	0.044323	10.568832	22.314202	-446.873058	-355.695207
59.18	0.006058	0.044264	10.568294	21.657853	-444.163590	-367.523124
59.69	0.006044	0.044213	10.567637	21.318671	-451.518534	-381.986985
60.20	0.006058	0.044183	10.568023	24.102387	-506.706149	-373.504324
60.71	0.006041	0.044154	10.568796	22.075849	-442.212896	-356.483747
61.22	0.006058	0.044138	10.569027	23.338382	-465.958907	-351.411776
61.73	0.006038	0.044135	10.569138	21.262839	-415.621105	-348.970228
62.24	0.006060	0.044142	10.569400	19.720582	-374.076237	-343.206130
62.75	0.006045	0.044137	10.568929	18.415235	-354.892450	-353.570166
63.26	0.006055	0.044149	10.569783	20.135032	-374.779650	-334.776383
63.77	0.006043	0.044142	10.569889	20.173098	-373.208772	-332.442038
64.28	0.006080	0.044136	10.569650	23.814458	-462.550798	-337.706807
64.79	0.006164	0.044118	10.569231	23.436697	-463.520167	-346.926588
65.30	0.006492	0.044119	10.568760	23.994587	-487.220835	-357.284298
65.81	0.007132	0.044107	10.568621	22.281269	-450.984418	-360.340221
66.32	0.008274	0.044118	10.568432	21.567474	-438.908091	-364.494465
66.83	0.009779	0.044124	10.568841	20.674366	-408.916388	-355.496597
67.34	0.011365	0.044137	10.569637	23.120822	-446.885479	-337.994841
67.85	0.012506	0.044128	10.569752	21.953755	-417.368263	-335.465328
68.36	0.013000	0.044113	10.570041	24.157865	-461.434034	-329.100797
68.87	0.012733	0.044080	10.570569	22.940795	-421.227445	-317.472645
69.38	0.011976	0.044047	10.570369	21.178520	-385.274929	-321.874399
69.89	0.010926	0.044020	10.570299	19.641688	-351.511532	-323.413949
70.40	0.009884	0.044012	10.569805	19.228363	-353.402510	-334.293789
70.91	0.008944	0.043999	10.569475	18.080364	-334.581083	-341.548336
71.42	0.008227	0.044007	10.569859	21.181593	-397.112557	-333.098875
71.93	0.007644	0.043988	10.569651	20.838162	-394.013017	-337.683467
72.44	0.007261	0.043984	10.569566	22.171150	-426.655401	-339.550697
72.95	0.006953	0.043973	10.569654	20.857764	-394.388674	-337.611374
73.46	0.006753	0.043975	10.569597	20.848596	-395.500523	-338.873295
73.97	0.006594	0.043968	10.569391	18.905675	-355.516472	-343.396073
74.48	0.006499	0.043961	10.569915	20.000829	-368.652404	-331.878490
74.99	0.006400	0.043947	10.570410	19.459726	-344.769082	-320.977921
75.50	0.006361	0.043943	10.570163	21.653688	-400.974552	-326.416321
76.01	0.006301	0.043927	10.569924	21.290596	-398.131493	-331.677301
76.52	0.006284	0.043923	10.570614	22.256406	-404.443109	-316.490173
77.03	0.006243	0.043911	10.571131	20.546431	-353.165228	-305.124548
77.55	0.006245	0.043904	10.570663	20.575435	-364.616182	-315.410800
78.06	0.006214	0.043891	10.569718	19.012681	-350.428950	-336.193363
78.57	0.006218	0.043875	10.569444	19.985524	-379.161602	-342.239340
79.08	0.006194	0.043827	10.569871	19.097670	-348.865605	-332.835828
79.59	0.006203	0.043773	10.569857	20.392836	-378.993685	-333.135184
80.10	0.006180	0.043712	10.570079	19.095293	-344.025072	-328.270626
80.61	0.006200	0.043664	10.570165	19.381482	-348.612064	-326.361888
81.12	0.006193	0.043633	10.570099	17.384640	-304.171851	-327.817921
81.63	0.006209	0.043640	10.569771	18.081441	-327.783987	-335.040911
82.14	0.006206	0.043644	10.569505	17.198986	-313.594597	-340.883027
82.65	0.006230	0.043679	10.569928	19.159068	-348.968967	-331.586231
83.16	0.006213	0.043699	10.570202	19.184779	-343.241787	-325.558469
83.67	0.006234	0.043735	10.569595	20.961790	-398.145521	-338.910797
84.18	0.006222	0.043747	10.569768	19.920822	-370.185322	-335.097593
84.69	0.006230	0.043771	10.570662	20.358665	-359.643159	-315.426946
85.20	0.006217	0.043786	10.570643	19.084224	-330.747262	-315.847923
85.71	0.006246	0.043810	10.570755	20.260142	-355.243728	-313.393735
86.22	0.006224	0.043810	10.570974	19.179944	-325.325307	-308.574018
86.73	0.006221	0.043799	10.570664	20.813306	-370.070851	-315.390727
87.24	0.006162	0.043745	10.570327	19.937577	-357.694928	-322.815015
87.75	0.006113	0.043688	10.569890	20.296885	-376.031694	-332.416659
88.26	0.006008	0.043585	10.570079	18.452891	-329.236435	-328.269886
88.77	0.005960	0.043546	10.570232	18.453206	-325.704213	-324.893567
89.28	0.005973	0.043590	10.570292	17.951879	-312.784159	-323.577497
89.79	0.006047	0.043792	10.570503	20.116143	-357.725982	-318.923589
90.30	0.006081	0.043994	10.570007	21.273120	-395.805873	-329.842636
90.81	0.006105	0.044114	10.570346	23.706483	-443.997383	-322.379591
91.32	0.006131	0.044107	10.570638	23.359130	-429.267017	-315.955588
91.83	0.006135	0.044078	10.570496	23.866574	-444.229502	-319.085632
92.34	0.006140	0.044026	10.570333	22.375489	-413.665075	-322.672174
92.85	0.006143	0.043978	10.570789	23.151076	-421.007910	-312.645764
93.36	0.006161	0.043920	10.570781	21.441331	-381.826630	-312.814097
93.87	0.006163	0.043884	10.570848	21.982956	-392.752204	-311.342740
94.38	0.006166	0.043843	10.571125	20.846322	-360.193131	-305.243338
94.89	0.006169	0.043792	10.570580	21.429448	-386.194045	-317.241122
95.40	0.006188	0.043724	10.569945	19.846142	-364.384749	-331.204262
95.91	0.006199	0.043686	10.569654	20.715858	-391.125584	-337.614747
96.42	0.006199	0.043705	10.570188	19.583945	-352.743688	-325.857257
96.93	0.006199	0.043772	10.569991	21.017994	-390.303195	-330.195791
97.44	0.006199	0.043844	10.569740	21.023795	-396.238690	-335.730310
97.95	0.006199	0.043876	10.569745	21.961619	-417.690485	-335.600012
98.46	0.006199	0.043839	10.568135	19.474957	-397.595462	-371.034805
98.97	0.006199	0.043774	10.565092	14.013367	-342.053957	-437.982195
99.48	0.006199	0.043723	10.560134	-4.278127	-35.324415	-547.046338
99.99	0.006199	0.043761	10.553979	-34.210513	511.745276	-682.466154
100.50	0.006199	0.043849	10.545591	-76.022861	1280.800945	-866.999338
101.01	0.006188	0.043976	10.536273	-116.142149	1989.427546	-1071.998980
101.52	0.006177	0.044090	10.528672	-147.010238	2524.691792	-1239.226737
102.03	0.006177	0.044199	10.522239	-164.257598	2773.356011	-1380.752010
102.54	0.006177	0.044307	10.519100	-170.551919	2845.868809	-1449.795963
103.06	0.006177	0.044465	10.517755	-166.360746	2718.364028	-1479.391269
103.57	0.006177	0.044653	10.517204	-154.546760	2433.711351	-1491.504674
104.08	0.006177	0.044872	10.517535	-135.638337	2006.075864	-1484.226450
104.59	0.006177	0.045046	10.519010	-113.108965	1521.483077	-1451.769202
105.10	0.006177	0.045170	10.522187	-88.484855	1027.897716	-1381.892585
105.61	0.006177	0.045201	10.527375	-66.299042	636.848088	-1267.748106
106.12	0.006177	0.045162	10.530993	-45.594658	243.685721	-1188.149047
106.63	0.006177	0.045095	10.533252	-30.489651	-51.923324	-1138.447687
107.14	0.006182	0.045047	10.534989	-17.085492	-320.441666	-1100.252542
107.65	0.006182	0.045003	10.536827	-7.814205	-491.457748	-1059.801476
108.16	0.006181	0.044967	10.537951	-0.070878	-643.780449	-1035.070494
108.67	0.006177	0.044882	10.538696	4.292730	-727.058118	-1018.690892
109.18	0.006177	0.044775	10.539571	8.774486	-810.044777	-999.439336
109.69	0.006177	0.044640	10.539922	9.850440	-826.721834	-991.721266
110.20	0.006177	0.044535	10.539477	12.346214	-894.424316	-1001.499378
110.71	0.006177	0.044444	10.540310	12.609525	-881.287151	-983.185846
111.22	0.006177	0.044412	10.540123	14.660240	-932.811952	-987.304845
111.73	0.006177	0.044404	10.539877	14.486912	-934.494538	-992.715907
112.24	0.006176	0.044421	10.540307	16.375928	-968.061433	-983.255451
112.75	0.006176	0.044420	10.540481	16.115948	-958.062111	-979.425821
113.26	0.006176	0.044425	10.540639	17.591951	-988.391360	-975.946145
113.77	0.006177	0.044428	10.540025	17.064046	-990.404983	-989.458989
114.28	0.006177	0.044455	10.539978	18.634723	-1027.646240	-990.493798
114.79	0.006177	0.044479	10.539855	17.634649	-1007.458290	-993.196602
115.30	0.006177	0.044518	10.539551	18.356708	-1031.092342	-999.885846
115.81	0.006177	0.044518	10.539477	17.472321	-1012.432069	-1001.505589
116.32	0.006177	0.044530	10.539396	17.718623	-1019.962352	-1003.280340
116.83	0.006176	0.044511	10.539460	16.170400	-982.865224	-1001.889958
117.34	0.006177	0.044499	10.539518	17.065450	-1002.115587	-1000.598968
117.85	0.006177	0.044497	10.539710	15.866805	-970.090858	-996.370935
118.36	0.006177	0.044507	10.540072	16.595189	-978.525324	-988.422345
118.87	0.006177	0.044511	10.540271	16.195450	-964.716500	-984.027729
119.38	0.006177	0.044534	10.540020	17.112091	-991.619807	-989.562810
119.89	0.006177	0.044557	10.539611	15.666336	-967.769147	-998.558263
120.40	0.006177	0.044590	10.539131	17.159255	-1013.209156	-1009.121342
120.91	0.006177	0.044609	10.539045	17.505995	-1023.175256	-1011.014147
121.42	0.006177	0.044626	10.539276	21.087231	-1100.292793	-1005.938151
121.93	0.006177	0.044611	10.539655	23.854828	-1155.239490	-997.579609
122.44	0.006177	0.044610	10.538577	30.217091	-1326.577958	-1021.314046
122.95	0.006177	0.044602	10.538243	33.158892	-1401.994090	-1028.656149
123.46	0.006176	0.044613	10.538364	32.439558	-1382.633418	-1025.983447
123.97	0.006176	0.044644	10.538698	28.111537	-1275.302502	-1018.637095
124.48	0.006176	0.044668	10.538870	26.255831	-1228.624107	-1014.858985
124.99	0.006175	0.044657	10.538627	24.704556	-1198.518019	-1020.204414
125.50	0.006174	0.044626	10.539113	22.896947	-1145.709284	-1009.522387
126.01	0.006173	0.044556	10.539338	22.081497	-1121.748020	-1004.571735
126.52	0.006163	0.044502	10.539903	21.371329	-1092.364284	-992.136711
127.03	0.006156	0.044457	10.540214	20.808157	-1072.215296	-985.282932
127.54	0.006155	0.044463	10.539838	19.799393	-1057.686104	-993.574490
128.05	0.006155	0.044471	10.540552	19.757850	-1040.241697	-977.846396
128.56	0.006154	0.044521	10.541384	19.956534	-1025.636455	-959.551569
129.08	0.006150	0.044536	10.541147	19.917587	-1030.195773	-964.755950
129.59	0.006185	0.044554	10.541044	18.986395	-1011.144768	-967.030744
130.10	0.006156	0.044546	10.540633	18.256708	-1003.831131	-976.077106
130.61	0.006159	0.044554	10.540147	18.319067	-1016.472398	-986.766371
131.12	0.006155	0.044579	10.540600	18.521684	-1010.699669	-976.810552
131.63	0.006171	0.044623	10.541060	18.875959	-1008.237080	-966.682107
132.14	0.006159	0.044667	10.542087	19.229032	-992.673518	-944.082958
132.65	0.006179	0.044707	10.542007	19.557837	-1002.080195	-945.835953
133.16	0.006151	0.044706	10.542353	19.542516	-993.759367	-938.235089
133.67	0.006157	0.044698	10.542866	19.480494	-980.494679	-926.943753
134.18	0.006141	0.044661	10.543278	19.182244	-964.123404	-917.876259
134.69	0.006158	0.044642	10.543365	19.030240	-958.631104	-915.974911
135.20	0.006154	0.044635	10.543376	19.639397	-972.387691	-915.721183
135.71	0.006178	0.044669	10.543224	20.538545	-996.599878	-919.073292
136.22	0.006166	0.044692	10.543148	20.725471	-1002.649667	-920.739598
136.73	0.006187	0.044739	10.543387	21.102910	-1005.828023	-915.483419
137.24	0.006158	0.044758	10.543223	21.259490	-1013.226653	-919.102739
137.75	0.006180	0.044770	10.543090	21.356363	-1018.522558	-922.027346
138.26	0.006178	0.044747	10.543377	21.169929	-1007.605663	-915.707481
138.77	0.006432	0.044721	10.543509	20.957684	-999.678375	-912.806213
139.28	0.008468	0.044678	10.543575	20.606789	-990.066015	-911.342069
139.79	0.018347	0.044648	10.543329	20.364642	-990.162384	-916.751212
140.30	0.049840	0.044598	10.543496	19.960242	-977.017832	-913.092587
140.81	0.125370	0.044567	10.543688	19.704996	-966.704557	-908.859537
141.32	0.270712	0.044521	10.543236	19.054624	-962.157118	-918.802959
141.83	0.492805	0.044502	10.543712	18.901995	-947.678989	-908.343722
142.34	0.755556	0.044494	10.544027	18.873048	-939.735706	-901.402219
142.85	0.987041	0.044507	10.543695	19.222756	-955.439741	-908.703292
143.36	1.120289	0.044519	10.544237	19.319028	-945.153746	-896.777420
143.87	1.130296	0.044536	10.544549	19.457037	-941.137508	-889.915827
144.38	1.035252	0.044531	10.544466	19.417548	-942.153882	-891.752474
144.89	0.876257	0.044527	10.544812	19.384551	-933.404537	-884.131009
145.40	0.696167	0.044493	10.544243	19.110153	-940.216866	-896.654706
145.91	0.527854	0.044470	10.543907	18.926437	-943.741218	-904.050751
146.42	0.388554	0.044442	10.544674	18.745010	-921.863510	-887.165368
146.93	0.281476	0.044429	10.544664	18.648788	-919.893042	-887.398616
147.44	0.202126	0.044443	10.543829	18.746351	-941.398402	-905.770356
147.95	0.144275	0.044465	10.542555	18.885423	-973.962593	-933.779680
148.46	0.102212	0.044489	10.540579	19.076239	-1023.935513	-977.259050
148.97	0.071557	0.044526	10.540036	19.373101	-1043.286408	-989.199295
149.48	0.049322	0.044548	10.540825	19.549558	-1029.152765	-971.842411
149.99	0.033467	0.044578	10.541548	19.802418	-1018.310890	-955.947840
150.50	0.022104	0.044587	10.541737	19.871588	-1015.548543	-951.793952
151.01	0.014130	0.044601	10.541940	20.030254	-1014.499643	-947.309312
151.52	0.008294	0.044598	10.542377	19.961786	-1002.858547	-937.708288
152.03	0.003815	0.044601	10.542316	19.983865	-1004.770185	-939.046982
152.54	0.000170	0.044588	10.541558	19.874614	-1019.747164	-955.732587
153.05	-0.002852	0.044568	10.541005	19.714777	-1028.808234	-967.885781
153.56	-0.005335	0.044525	10.539814	19.363195	-1048.182259	-994.086995
154.07	-0.007245	0.044491	10.539095	19.091267	-1058.514738	-1009.914359
154.59	-0.008571	0.044446	10.539657	18.723442	-1037.074596	-997.539408
155.10	-0.009213	0.044418	10.539100	18.500581	-1044.807159	-1009.809256
155.61	-0.009202	0.044388	10.539052	18.257251	-1040.308265	-1010.860901
156.12	-0.008509	0.044361	10.539157	18.035094	-1032.756628	-1008.535611
156.63	-0.007261	0.044311	10.538827	17.632603	-1031.105480	-1015.798703
157.14	-0.005547	0.044276	10.539314	17.376460	-1013.991058	-1005.097705
157.65	-0.003541	0.044242	10.539341	17.128912	-1007.660269	-1004.494533
158.16	-0.001414	0.044252	10.539617	17.222117	-1003.454291	-998.435764
158.67	0.000615	0.044274	10.539962	17.418814	-1000.014744	-990.835586
159.18	0.002365	0.044321	10.539563	17.804183	-1018.090850	-999.616326
159.69	0.003635	0.044356	10.539099	18.188048	-1037.619995	-1009.816152
160.20	0.004345	0.044410	10.538920	18.676062	-1052.993514	-1013.764940
160.71	0.004384	0.044441	10.538707	19.524541	-1077.437484	-1018.450785
161.22	0.003836	0.044474	10.538959	20.189779	-1086.943560	-1012.911003
161.73	0.002687	0.044481	10.539583	20.301764	-1075.116222	-999.169817
162.24	0.001127	0.044501	10.539418	20.479602	-1083.010810	-1002.795430
162.75	-0.000699	0.044511	10.539401	20.571470	-1085.532856	-1003.183926
163.26	-0.002604	0.044529	10.539099	20.989413	-1102.120203	-1009.829271
163.77	-0.004390	0.044531	10.539381	18.954320	-1048.756552	-1003.613128
164.28	-0.005880	0.044538	10.539170	20.702134	-1093.871321	-1008.268838
164.79	-0.006932	0.044519	10.539175	20.380528	-1086.344930	-1008.151391
165.30	-0.007440	0.044526	10.539336	20.683905	-1089.623700	-1004.617308
165.81	-0.007388	0.044511	10.539486	19.601168	-1061.241201	-1001.318442
166.32	-0.006784	0.044525	10.539221	20.420273	-1086.187009	-1007.128015
166.83	-0.005727	0.044533	10.539125	19.336931	-1063.473663	-1009.250278
167.34	-0.004323	0.044542	10.539030	21.036096	-1104.774027	-1011.335656
167.85	-0.002740	0.044537	10.539347	20.651403	-1088.602288	-1004.356677
168.36	-0.001143	0.044514	10.539397	21.392072	-1104.503323	-1003.260712
168.87	0.000329	0.044466	10.539029	19.973410	-1080.340114	-1011.363090
169.38	0.001534	0.044425	10.539242	19.897136	-1073.673005	-1006.678167
169.89	0.002353	0.044379	10.539469	18.136871	-1027.916712	-1001.683911
170.40	0.002759	0.044368	10.539414	18.726331	-1042.759922	-1002.899224
170.91	0.002704	0.044368	10.539185	17.490213	-1019.580995	-1007.932117
171.42	0.002264	0.044390	10.539161	19.364790	-1063.282717	-1008.456387
171.93	0.001479	0.044404	10.539450	18.185869	-1029.471052	-1002.090682
172.44	0.000485	0.044425	10.539705	18.497213	-1030.777294	-996.500048
172.95	-0.000627	0.044434	10.539699	4.395255	-706.281467	-996.620638
173.46	-0.001704	0.044450	10.539410	-78.538276	1196.162799	-1002.971026
173.97	-0.002634	0.044456	10.539349	-219.792656	4446.382832	-1004.313606
174.48	-0.003390	0.044472	10.538961	-296.302419	6198.660923	-1012.851514
174.99	-0.003832	0.044459	10.539040	-323.175802	6819.103708	-1011.109036
175.50	-0.003951	0.044432	10.539869	-332.696639	7057.388918	-992.871502
176.01	-0.003906	0.044280	10.540584	-336.409064	7159.317030	-977.161305
176.52	-0.003440	0.043863	10.541463	-337.998450	7216.186984	-957.813399
177.03	-0.002844	0.042895	10.542174	-338.727922	7249.382593	-942.166114
177.54	-0.002275	0.041178	10.544939	-339.062911	7320.856714	-881.342454
178.05	-0.001436	0.038535	10.546620	-339.196042	7362.701473	-844.349896
178.56	-0.000795	0.035042	10.549698	-339.208227	7433.962868	-776.640860
179.07	-0.000328	0.030877	10.567652	-339.138829	7846.445287	-381.647895
179.58	0.000230	0.026371	10.585092	-339.006711	8245.612290	2.020654
180.09	0.000423	0.021817	10.579252	-338.834203	8106.964247	-126.448388
180.61	0.000354	0.017511	10.585482	-338.647578	8246.331820	10.593073
181.12	0.000378	0.013612	10.589117	-338.483004	8326.394115	90.578713
181.63	0.000109	0.010263	10.592715	-338.362195	8406.593349	169.733971
182.14	-0.000242	0.007479	10.594867	-338.309048	8454.989624	217.066454
182.65	-0.000503	0.005246	10.594890	-338.334780	8456.127457	217.586784
183.16	-0.000889	0.003493	10.594901	-338.460049	8459.260543	217.824728
183.67	-0.001193	0.002153	10.594902	-338.717984	8465.227305	217.852563
184.18	-0.001388	0.001137	10.594902	-339.202052	8476.367317	217.849651
184.69	-0.001470	0.000395	10.594902	-340.007907	8494.911970	217.844058
185.20	-0.001575	-0.000148	10.594902	-341.421756	8527.460530	217.846197
185.71	-0.001518	-0.000529	10.592993	-344.090102	8544.843740	175.835079
186.22	-0.001423	-0.000802	10.580112	-351.411367	8416.311799	-107.536700
186.73	-0.001355	-0.000984	10.571630	-630.430568	14643.625860	-294.132455
187.24	-0.001259	-0.001131	10.570820	-321.084073	7503.894268	-311.952445
187.75	-0.001038	-0.001226	10.567558	-329.416460	7620.463309	-383.723949
188.26	-0.001041	-0.001289	10.567272	-332.007451	7673.516565	-390.010624
188.77	-0.001020	-0.001300	10.567233	-333.318376	7702.780545	-390.881603
189.28	-0.000812	-0.001297	10.567718	-333.863235	7726.508950	-380.211288
189.79	-0.001045	-0.001249	10.568529	-334.117298	7751.061443	-362.369406
190.30	-0.000987	-0.001194	10.568018	-333.887619	7733.993294	-373.607363
190.81	-0.000968	-0.001118	10.567767	-333.202116	7712.419030	-379.134500
191.32	-0.000996	-0.001060	10.567980	-331.352269	7674.751888	-374.445377
191.83	-0.000999	-0.000992	10.567293	-326.902061	7556.461457	-389.563035
192.34	-0.000923	-0.000941	10.568026	-307.645486	7130.093711	-373.430562
192.85	-0.000888	-0.000881	10.569295	-412.500048	9573.084720	-345.505126
193.36	-0.000743	-0.000859	10.568569	-359.059268	8326.152935	-361.476654
193.87	-0.000635	-0.000834	10.568255	-352.370077	8164.925946	-368.386845
194.38	-0.000494	-0.000834	10.568051	-350.499565	8117.166019	-372.871523
194.89	-0.000418	-0.000839	10.569881	-350.462836	8158.529202	-332.608450
195.40	-0.000401	-0.000866	10.569868	-352.185160	8197.873727	-332.897264
195.91	-0.000293	-0.000908	10.566940	-357.779190	8259.109500	-397.321049
196.42	-0.000470	-0.000977	10.567074	-384.228022	8871.050527	-394.365895
196.93	-0.000403	-0.001032	10.565109	-267.126817	6130.103212	-437.594616
197.44	-0.000646	-0.001088	10.565136	-320.025470	7348.415999	-437.018561
197.95	-0.000682	-0.001113	10.568616	-328.226952	7617.488457	-360.441772
198.46	-0.000849	-0.001133	10.568101	-331.271850	7675.691929	-371.782782
198.97	-0.001011	-0.001119	10.568092	-332.829207	7711.336197	-371.978863
199.48	-0.001039	-0.001104	10.567084	-333.486081	7703.206748	-394.157604
199.99	-0.001197	-0.001068	10.565109	-333.673554	7661.986905	-437.594061
200.50	-0.001159	-0.001029	10.565095	-333.322166	7653.577787	-437.899579
201.01	-0.001148	-0.000979	10.565087	-332.359506	7631.230190	-438.078443
201.52	-0.001067	-0.000949	10.565080	-329.931076	7575.165844	-438.233654
202.03	-0.000960	-0.000909	10.565072	-324.320298	7445.822179	-438.410588
202.54	-0.000811	-0.000893	10.565072	-301.856502	6928.696465	-438.426619
203.05	-0.000675	-0.000882	10.565097	-474.925250	10913.272668	-437.861116
203.56	-0.000486	-0.000897	10.565080	-370.119921	8500.292321	-438.240312
204.07	-0.000381	-0.000908	10.565095	-360.183537	8271.910266	-437.906347
204.58	-0.000255	-0.000923	10.565099	-357.613550	8212.835630	-437.824710
205.09	-0.000201	-0.000919	10.565095	-357.896890	8219.264711	-437.913722
205.60	-0.000225	-0.000915	10.565091	-361.096437	8292.824536	-438.002105
206.12	-0.000183	-0.000885	10.565073	-370.803259	8515.872081	-438.383826
206.63	-0.000343	-0.000863	10.565076	-429.902974	9876.396333	-438.317998
207.14	-0.000340	-0.000835	10.565108	-274.360409	6296.577285	-437.633465
207.65	-0.000536	-0.000834	10.565093	-316.443303	7264.982417	-437.947015
208.16	-0.000592	-0.000820	10.565081	-325.330711	7469.281200	-438.220135
208.67	-0.000723	-0.000806	10.565078	-329.016622	7554.062934	-438.283721
209.18	-0.000831	-0.000762	10.565077	-330.955500	7598.665440	-438.312152
209.69	-0.000858	-0.000732	10.565075	-331.644035	7614.482451	-438.343465
210.20	-0.000918	-0.000684	10.565076	-332.142179	7625.955461	-438.337837
210.71	-0.000890	-0.000663	10.565080	-331.268725	7605.941462	-438.249488
211.22	-0.000867	-0.000647	10.565079	-329.534597	7566.004127	-438.266957
211.73	-0.000785	-0.000659	10.565086	-326.426252	7494.623709	-438.102292
212.24	-0.000729	-0.000667	10.565116	-317.670565	7293.761551	-437.443364
212.75	-0.000604	-0.000691	10.568326	-297.488174	6903.187559	-366.837462
213.26	-0.000542	-0.000693	10.572773	-235.242643	5572.883043	-268.998931
213.77	-0.000465	-0.000701	10.572233	-493.488894	11505.170309	-280.878001
214.28	-0.000359	-0.000681	10.566593	-421.371740	9714.985935	-404.954499
214.79	-0.000361	-0.000672	10.566515	-435.685612	10042.689615	-406.668427
215.30	-0.000312	-0.000643	10.567571	-426.042255	9845.067303	-383.427049
215.81	-0.000310	-0.000620	10.568136	-624.411268	14424.467815	-371.013213
216.32	-0.000335	-0.000607	10.567374	-215.416245	4991.973080	-387.772585
216.83	-0.000395	-0.000596	10.566416	-281.718412	6496.125216	-408.854904
217.34	-0.000386	-0.000594	10.566131	-307.514585	7083.388910	-415.108122
217.85	-0.000510	-0.000590	10.565104	-316.159100	7258.675382	-437.722629
218.36	-0.000526	-0.000611	10.565082	-318.896909	7321.204717	-438.193947
218.87	-0.000567	-0.000631	10.565075	-319.428716	7333.292006	-438.341547
219.38	-0.000632	-0.000659	10.565077	-319.979913	7346.022089	-438.301750
219.89	-0.000634	-0.000683	10.565084	-318.394192	7309.669714	-438.158308
220.40	-0.000647	-0.000693	10.565086	-316.565394	7267.634138	-438.098459
220.91	-0.000644	-0.000708	10.565088	-314.787385	7226.731022	-438.073624
221.42	-0.000630	-0.000712	10.565086	-312.624727	7176.920540	-438.099222
221.93	-0.000586	-0.000716	10.565080	-306.445121	7034.522709	-438.237934
222.44	-0.000560	-0.000689	10.565082	-307.828690	7066.422365	-438.189888
222.95	-0.000525	-0.000659	10.565084	-308.620733	7084.704046	-438.143019
223.46	-0.000474	-0.000608	10.565093	-303.517004	6967.405160	-437.964439
223.97	-0.000430	-0.000592	10.565108	-312.605927	7176.982772	-437.627035
224.48	-0.000431	-0.000581	10.565113	-311.499397	7151.623595	-437.519468
224.99	-0.000396	-0.000606	10.565099	-309.596990	7107.502172	-437.832995
225.50	-0.000348	-0.000616	10.565107	-310.003026	7117.039505	-437.651239
226.01	-0.000410	-0.000634	10.565100	-309.181134	7097.967199	-437.796848
226.52	-0.000353	-0.000619	10.565097	-307.369769	7056.198262	-437.865453
227.03	-0.000400	-0.000631	10.565098	-305.345678	7009.619444	-437.851098
227.54	-0.000428	-0.000616	10.565113	-299.461013	6874.510447	-437.513429
228.05	-0.000425	-0.000625	10.565144	-291.671706	6695.912111	-436.837259
228.56	-0.000456	-0.000617	10.565152	-278.540932	6393.829084	-436.662794
229.07	-0.000482	-0.000617	10.565093	-267.189060	6131.161834	-437.951565
229.58	-0.000492	-0.000598	10.565090	-266.495605	6115.131271	-438.015908
230.09	-0.000513	-0.000589	10.565092	-240.301317	5512.188955	-437.976589
230.60	-0.000495	-0.000554	10.565084	-281.999372	6471.869539	-438.161992
231.11	-0.000519	-0.000564	10.565088	-270.867060	6215.715958	-438.058551
231.62	-0.000487	-0.000574	10.565085	-296.485062	6805.363153	-438.125756
232.14	-0.000485	-0.000621	10.565081	-295.370716	6779.604317	-438.227796
232.65	-0.000469	-0.000660	10.565089	-302.068156	6933.965760	-438.047839
233.16	-0.000438	-0.000727	10.565103	-304.961102	7000.891587	-437.731902
233.67	-0.000411	-0.000769	10.565121	-303.889789	6976.643907	-437.337380
234.18	-0.000398	-0.000824	10.565111	-306.487360	7036.212876	-437.553187
234.69	-0.000360	-0.000827	10.565119	-305.232835	7007.517096	-437.378668
235.20	-0.000368	-0.000821	10.565103	-305.153137	7005.300074	-437.743431
235.71	-0.000345	-0.000777	10.565087	-304.475905	6989.349289	-438.087926
236.22	-0.000361	-0.000736	10.565086	-302.605234	6946.266071	-438.107966
236.73	-0.000359	-0.000678	10.565087	-299.112995	6865.904772	-438.080458
237.24	-0.000367	-0.000647	10.565092	-292.965680	6724.499633	-437.981282
237.75	-0.000391	-0.000616	10.565083	-277.590724	6370.364210	-438.180844
238.26	-0.000386	-0.000621	10.565081	-259.517626	5954.285733	-438.220846
238.77	-0.000409	-0.000613	10.565083	-220.877804	5064.869122	-438.164701
239.28	-0.000423	-0.000626	10.565082	-185.704170	4255.161485	-438.186260
239.79	-0.000420	-0.000609	10.565080	-205.739338	4716.312786	-438.235307
240.30	-0.000452	-0.000610	10.565081	-174.120690	3988.482307	-438.216248
240.81	-0.000428	-0.000594	10.565083	-254.390476	5836.319657	-438.164410
241.32	-0.000448	-0.000585	10.565080	-254.970799	5849.605098	-438.234438
241.83	-0.000415	-0.000567	10.565085	-288.048668	6611.159405	-438.126572
242.34	-0.000411	-0.000575	10.565077	-292.426172	6711.744863	-438.301311
242.85	-0.000390	-0.000566	10.565086	-301.781028	6927.301638	-438.099856
243.36	-0.000373	-0.000592	10.565092	-305.258988	7007.498905	-437.970298
243.87	-0.000356	-0.000603	10.565078	-305.803006	7019.703973	-438.273676
244.38	-0.000347	-0.000619	10.565079	-307.212087	7052.143240	-438.271100
244.89	-0.000324	-0.000627	10.565083	-305.684304	7017.072509	-438.177327
245.40	-0.000338	-0.000641	10.565083	-303.960464	6977.400482	-438.167609
245.91	-0.000325	-0.000621	10.565095	-301.367578	6917.980890	-437.912188
246.42	-0.000338	-0.000600	10.568409	-299.772020	6957.681372	-365.005525
246.93	-0.000343	-0.000544	10.567995	-295.851757	6857.890834	-374.112873
247.44	-0.000355	-0.000504	10.568928	-294.449835	6847.149049	-353.575318
247.95	-0.000366	-0.000448	10.565105	-292.747745	6719.789186	-437.689076
248.46	-0.000374	-0.000409	10.565097	-283.955951	6517.222858	-437.862904
248.97	-0.000372	-0.000362	10.565092	-290.802093	6674.698035	-437.978018
249.48	-0.000390	-0.000339	10.567919	-286.483962	6640.502112	-375.777713
249.99	-0.000378	-0.000303	10.569887	-291.970626	6812.185556	-332.487280
250.50	-0.000382	-0.000291	10.569888	-297.540774	6940.430435	-332.466329
251.01	-0.000372	-0.000272	10.568050	-306.498645	7104.251385	-372.898712
251.52	-0.000371	-0.000286	10.565103	-303.860874	6975.562255	-437.734250
252.03	-0.000350	-0.000288	10.565081	-312.652767	7177.450421	-438.209479
252.54	-0.000355	-0.000299	10.565082	-312.542907	7174.937046	-438.194631
253.05	-0.000323	-0.000269	10.565089	-317.215384	7282.667081	-438.031325
253.56	-0.000322	-0.000229	10.565086	-322.818579	7411.563027	-438.114970
254.07	-0.000318	-0.000156	10.565076	-328.569512	7543.734008	-438.318654
254.58	-0.000307	-0.000105	10.565079	-332.810103	7641.408753	-438.263524
255.09	-0.000303	-0.000044	10.565075	-337.476261	7748.723473	-438.357607
255.60	-0.000320	-0.000043	10.565067	-337.462665	7748.225724	-438.533881
256.11	-0.000310	-0.000060	10.565066	-335.773284	7709.313366	-438.556179
256.62	-0.000330	-0.000116	10.565069	-330.502465	7588.065216	-438.475775
257.13	-0.000332	-0.000177	10.565077	-324.022556	7439.083441	-438.300705
257.65	-0.000342	-0.000241	10.565107	-315.504634	7243.683864	-437.651985
258.16	-0.000335	-0.000271	10.565094	-309.372832	7102.233255	-437.936846
258.67	-0.000350	-0.000295	10.565093	-306.702145	7040.745632	-437.945737
259.18	-0.000342	-0.000280	10.565079	-305.573617	7014.441650	-438.256382
259.69	-0.000345	-0.000266	10.565068	-302.705054	6948.149160	-438.503582
260.20	-0.000341	-0.000240	10.565071	-311.639792	7153.891944	-438.438548
260.71	-0.000346	-0.000225	10.565073	-308.957753	7092.191730	-438.400961
261.22	-0.000321	-0.000201	10.565079	-315.752081	7248.748719	-438.254171
261.73	-0.000339	-0.000192	10.565085	-318.474431	7311.541868	-438.134379
262.24	-0.000319	-0.000154	10.565070	-322.767519	7410.032217	-438.454000
262.75	-0.000316	-0.000141	10.565067	-325.397007	7470.496146	-438.516955
263.26	-0.000314	-0.000104	10.565069	-330.161527	7580.199707	-438.492195
263.77	-0.000311	-0.000077	10.565093	-333.079428	7647.928965	-437.957839
264.28	-0.000295	-0.000041	10.565089	-336.943086	7736.787720	-438.035437
264.79	-0.000305	-0.000014	10.569883	-339.439910	7904.818858	-332.576353
265.30	-0.000289	0.000017	10.569889	-342.544518	7976.432058	-332.436904
265.81	-0.000299	0.000019	10.569889	-342.850817	7983.488106	-332.431993
266.32	-0.000293	0.000018	10.569896	-342.781509	7982.045259	-332.286442
266.83	-0.000305	-0.000016	10.569916	-339.237890	7900.941109	-331.839286
267.34	-0.000300	-0.000051	10.569922	-335.073237	7805.206298	-331.711386
267.85	-0.000306	-0.000110	10.569917	-327.581079	7632.614880	-331.830170
268.36	-0.000302	-0.000148	10.569419	-322.356114	7500.867654	-342.771765
268.87	-0.000312	-0.000185	10.569895	-315.242239	7348.068989	-332.316676
269.38	-0.000299	-0.000185	10.569908	-315.730458	7359.616132	-332.022376
269.89	-0.000311	-0.000194	10.569889	-312.873792	7293.406043	-332.452229
270.40	-0.000293	-0.000175	10.569879	-316.632096	7379.703022	-332.660075
270.91	-0.000305	-0.000181	10.569886	-315.705033	7358.532533	-332.497732
271.42	-0.000287	-0.000172	10.569881	-317.486927	7399.424265	-332.618739
271.93	-0.000295	-0.000187	10.569890	-316.992689	7388.265834	-332.410069
272.44	-0.000289	-0.000183	10.569887	-317.210961	7393.208169	-332.488488
272.95	-0.000288	-0.000187	10.569904	-318.045035	7412.813243	-332.102182
273.46	-0.000283	-0.000173	10.569921	-320.492759	7469.539282	-331.739442
273.97	-0.000286	-0.000175	10.569914	-320.042487	7459.020327	-331.886200
274.48	-0.000276	-0.000153	10.569893	-324.021939	7550.144109	-332.345824
274.99	-0.000287	-0.000152	10.569868	-323.080619	7527.896559	-332.897846
275.50	-0.000275	-0.000141	10.569925	-325.144205	7576.718956	-331.639304
276.01	-0.000287	-0.000160	10.569935	-321.583496	7494.979618	-331.422789
276.52	-0.000275	-0.000166	10.569943	-320.765675	7476.332264	-331.252431
277.03	-0.000285	-0.000198	10.569941	-315.484673	7354.717590	-331.298025
277.54	-0.000278	-0.000211	10.569934	-312.620872	7288.626850	-331.457348
278.05	-0.000277	-0.000237	10.569943	-307.638912	7174.146042	-331.264474
278.56	-0.000268	-0.000245	10.569944	-305.651698	7128.432773	-331.234218
279.07	-0.000277	-0.000255	10.569941	-301.584137	7034.737874	-331.292433
279.58	-0.000259	-0.000245	10.569941	-304.581724	7103.726720	-331.306355
280.09	-0.000277	-0.000240	10.569941	-303.947474	7089.138014	-331.295356
280.60	-0.000267	-0.000201	10.569939	-311.224694	7256.596783	-331.352928
281.11	-0.000275	-0.000178	10.565111	-315.016860	7232.543204	-437.568307
281.62	-0.000259	-0.000154	10.565098	-319.244622	7329.570539	-437.849042
282.13	-0.000267	-0.000145	10.565100	-321.115521	7372.687174	-437.802123
282.64	-0.000247	-0.000140	10.565099	-322.130133	7396.029005	-437.815661
283.15	-0.000258	-0.000166	10.565093	-318.628116	7315.277166	-437.945964
283.67	-0.000243	-0.000165	10.565085	-319.728269	7340.412309	-438.127206
284.18	-0.000255	-0.000196	10.565089	-315.015919	7232.016941	-438.049635
284.69	-0.000255	-0.000196	10.565107	-315.248194	7237.791063	-437.642105
285.20	-0.000254	-0.000213	10.565105	-312.203412	7167.643629	-437.697047
285.71	-0.000252	-0.000223	10.565110	-310.830982	7136.165705	-437.587398
286.22	-0.000258	-0.000252	10.565098	-304.951109	7000.545307	-437.842796
286.73	-0.000249	-0.000267	10.565089	-303.382813	6964.226616	-438.049840
287.24	-0.000258	-0.000298	10.565082	-294.729837	6764.880134	-438.200495
287.75	-0.000243	-0.000301	10.565081	-294.231858	6753.392907	-438.223300
288.26	-0.000253	-0.000311	10.565080	-292.015246	6702.350367	-438.239430
288.77	-0.000240	-0.000287	10.565081	-294.171322	6752.010881	-438.212336
289.28	-0.000247	-0.000260	10.565079	-298.067208	6841.641786	-438.261047
289.79	-0.000238	-0.000211	10.565076	-307.938889	7068.821253	-438.321398
290.30	-0.000246	-0.000177	10.565078	-312.398190	7171.500873	-438.294643
290.81	-0.000233	-0.000127	10.565080	-321.606823	7383.541830	-438.236102
291.32	-0.000244	-0.000121	10.565085	-322.724971	7409.402106	-438.120782
291.83	-0.000227	-0.000102	10.565082	-326.024004	7485.263016	-438.198717
292.34	-0.000236	-0.000124	10.565078	-322.412064	7402.034085	-438.278187
292.85	-0.000229	-0.000148	10.565077	-319.787825	7341.605864	-438.296431
293.36	-0.000237	-0.000195	10.565077	-312.348148	7170.331175	-438.311579
293.87	-0.000229	-0.000236	10.565078	-306.741518	7041.297102	-438.284270
294.38	-0.000235	-0.000279	10.565080	-299.957468	6885.182525	-438.234730
294.89	-0.000227	-0.000296	10.565082	-298.123148	6843.008789	-438.185424
295.40	-0.000240	-0.000309	10.565082	-292.901438	6722.803145	-438.188925
295.91	-0.000234	-0.000281	10.565084	-299.527480	6875.372433	-438.150700
296.42	-0.000247	-0.000266	10.565087	-299.215182	6868.245667	-438.091337
296.93	-0.000237	-0.000223	10.565081	-305.701107	7017.410773	-438.223625
297.44	-0.000239	-0.000205	10.565075	-308.154127	7073.744040	-438.351830
297.95	-0.000236	-0.000178	10.565075	-312.242665	7167.869278	-438.343741
298.46	-0.000235	-0.000167	10.565076	-312.586039	7175.786850	-438.331130
298.97	-0.000223	-0.000156	10.565073	-315.358110	7239.539452	-438.387905
299.48	-0.000236	-0.000180	10.565072	-309.864178	7113.047168	-438.410651
299.99	-0.000216	-0.000203	10.565076	-306.898956	7044.878289	-438.325259
300.50	-0.000230	-0.000245	10.565077	-299.118004	6865.775860	-438.313413
301.01	-0.000220	-0.000258	10.565075	-298.747348	6857.204954	-438.350175
301.52	-0.000219	-0.000266	10.565076	-296.522903	6806.020789	-438.329370
302.03	-0.000216	-0.000248	10.565076	-300.334766	6893.763245	-438.334447
302.54	-0.000219	-0.000234	10.565081	-302.166690	6936.056101	-438.217518
303.05	-0.000212	-0.000200	10.565087	-308.904657	7091.293713	-438.091684
303.56	-0.000221	-0.000200	10.565076	-307.396421	7056.316155	-438.338245
304.07	-0.000214	-0.000178	10.565077	-312.342129	7170.189252	-438.314794
304.58	-0.000224	-0.000187	10.565074	-309.119626	7095.950272	-438.370169
305.09	-0.000220	-0.000187	10.565072	-310.195469	7120.673497	-438.410535
305.60	-0.000224	-0.000194	10.565076	-307.081138	7049.059399	-438.337336
306.11	-0.000216	-0.000197	10.565077	-307.569267	7060.329138	-438.305687
306.62	-0.000225	-0.000211	10.565073	-304.414492	6987.622893	-438.386199
307.13	-0.000214	-0.000218	10.565076	-303.050106	6956.267463	-438.336340
307.64	-0.000226	-0.000228	10.565079	-300.651236	6901.123097	-438.263083
308.15	-0.000219	-0.000221	10.565082	-302.303600	6939.226624	-438.199481
308.66	-0.000224	-0.000228	10.565076	-299.647244	6877.953172	-438.318763
309.18	-0.000217	-0.000221	10.565077	-302.448877	6942.460038	-438.305196
309.69	-0.000220	-0.000233	10.565077	-298.624392	6854.431738	-438.295620
310.20	-0.000199	-0.000240	10.565075	-299.111779	6865.602146	-438.342434
310.71	-0.000210	-0.000275	10.565073	-290.981617	6678.396141	-438.392471
311.22	-0.000197	-0.000288	10.565074	-290.311071	6662.979216	-438.374521
311.73	-0.000201	-0.000310	10.565074	-285.179059	6544.833833	-438.382359
312.24	-0.000197	-0.000307	10.565085	-285.363366	6549.347571	-438.123790
312.75	-0.000203	-0.000315	10.565075	-282.199348	6476.269161	-438.356368
313.26	-0.000186	-0.000300	10.565069	-286.767311	6581.285099	-438.487059
313.77	-0.000202	-0.000306	10.565072	-281.900095	6469.307439	-438.426022
314.28	-0.000190	-0.000297	10.565075	-287.266773	6592.930703	-438.345717
314.79	-0.000206	-0.000311	10.565086	-282.704062	6488.147497	-438.108345
315.30	-0.000195	-0.000290	10.565079	-288.056245	6611.202533	-438.251799
315.81	-0.000207	-0.000277	10.565067	-287.359018	6594.871773	-438.519701
316.32	-0.000193	-0.000232	10.565068	-297.542358	6829.309378	-438.500052
316.83	-0.000200	-0.000201	10.565073	-300.215031	6890.938210	-438.400057
317.34	-0.000193	-0.000166	10.565074	-308.632813	7084.749464	-438.364963
317.85	-0.000201	-0.000151	10.565078	-309.799992	7111.703893	-438.282568
318.36	-0.000192	-0.000132	10.565073	-315.095582	7233.495559	-438.388472
318.87	-0.000206	-0.000144	10.565070	-312.660416	7177.365066	-438.458860
319.38	-0.000191	-0.000138	10.565069	-313.760611	7202.666360	-438.482542
319.89	-0.000200	-0.000166	10.565068	-308.058678	7071.376551	-438.514281
320.40	-0.000186	-0.000166	10.565074	-308.843381	7089.581768	-438.379174
320.91	-0.000196	-0.000165	10.565080	-307.739359	7064.314476	-438.239041
321.42	-0.000185	-0.000138	10.565082	-314.205523	7213.218429	-438.186498
321.93	-0.000187	-0.000109	10.565074	-318.526931	7312.510593	-438.363142
322.44	-0.000180	-0.000078	10.565070	-325.492669	7472.749045	-438.468499
322.95	-0.000180	-0.000067	10.565068	-327.040789	7508.351448	-438.501679
323.46	-0.000175	-0.000055	10.565071	-329.858479	7573.287568	-438.431233
323.97	-0.000187	-0.000074	10.565066	-325.319672	7468.675243	-438.555755
324.48	-0.000180	-0.000087	10.565065	-323.261049	7421.277802	-438.564004
324.99	-0.000185	-0.000123	10.565068	-314.448775	7218.490722	-438.498710
325.50	-0.000179	-0.000143	10.565070	-311.549699	7151.805119	-438.450869
326.01	-0.000186	-0.000183	10.565070	-300.594540	6899.615294	-438.456423
326.52	-0.000178	-0.000200	10.565073	-298.447439	6850.244429	-438.404279
327.03	-0.000186	-0.000217	10.565096	-293.383869	6734.215872	-437.895761
327.54	-0.000176	-0.000214	10.565099	-295.735798	6788.439907	-437.816172
328.05	-0.000185	-0.000214	10.565087	-294.071364	6749.845911	-438.082584
328.56	-0.000173	-0.000191	10.568255	-300.120781	6962.161011	-368.390683
329.07	-0.000183	-0.000181	10.565090	-301.050124	6910.568162	-438.012397
329.58	-0.000170	-0.000144	10.565092	-311.032006	7140.391001	-437.971068
330.09	-0.000181	-0.000123	10.565084	-314.589849	7222.105636	-438.148195
330.60	-0.000169	-0.000092	10.565075	-322.185702	7396.739421	-438.358193
331.11	-0.000184	-0.000072	10.565077	-325.683281	7477.303303	-438.309728
331.62	-0.000168	-0.000039	10.565077	-332.725925	7639.429915	-438.302713
332.13	-0.000180	-0.000038	10.565079	-332.781777	7640.764725	-438.255866
332.64	-0.000176	-0.000029	10.565072	-334.660469	7683.850221	-438.409779
333.15	-0.000185	-0.000043	10.565066	-331.161734	7603.166709	-438.546981
333.66	-0.000177	-0.000039	10.565076	-332.653083	7637.723525	-438.330952
334.17	-0.000183	-0.000028	10.565085	-334.534566	7681.248848	-438.126590
334.69	-0.000180	0.000001	10.565069	-341.096469	7831.930770	-438.480333
335.20	-0.000186	0.000021	10.565063	-345.701297	7937.790198	-438.615918
335.71	-0.000171	0.000048	10.565067	-351.866617	8079.798315	-438.535256
336.22	-0.000183	0.000037	10.565072	-349.368318	8022.403137	-438.425751
336.73	-0.000172	0.000027	10.565069	-347.013986	7968.150517	-438.479840
337.24	-0.000172	-0.000014	10.565084	-337.580278	7751.330401	-438.154910
