Length [m]	OTDR [V]	Brillouin intensity [V]	Fitted Frequency [GHz]	Temperature [”]	Compensated Strain [レュ]	Uncompensated Strain [レュ]
0.51	0.007034	0.073684	10.468660	-117.870934	532.025999	-2559.471503
1.02	0.007059	0.077723	10.452029	-104.561016	-157.940380	-2925.367189
1.53	0.007040	0.081111	10.444064	-79.172443	-926.076390	-3100.599304
2.04	0.007063	0.083982	10.441567	-58.299249	-1464.155027	-3155.529790
2.55	0.007079	0.086540	10.441483	-42.402182	-1832.038249	-3157.378624
3.06	0.007068	0.088723	10.441128	-25.477662	-2229.826045	-3165.192196
3.57	0.007064	0.090619	10.440746	-12.955827	-2526.874903	-3173.587029
4.08	0.007048	0.092141	10.439996	-4.414971	-2740.788204	-3190.095036
4.59	0.007056	0.093409	10.440519	11.695372	-3099.573873	-3178.582455
5.10	0.007029	0.094360	10.441371	23.384169	-3349.004249	-3159.846100
5.61	0.007067	0.095123	10.441324	29.543164	-3491.860759	-3160.874935
6.12	0.007043	0.095637	10.440457	28.557491	-3489.154848	-3179.937712
6.63	0.007064	0.096021	10.439561	26.272119	-3457.222596	-3199.660891
7.14	0.007021	0.096229	10.439095	21.257688	-3352.546236	-3209.919291
7.65	0.007056	0.096389	10.439134	22.036926	-3369.575620	-3209.052772
8.16	0.007017	0.096445	10.438703	25.632036	-3462.274609	-3218.535329
8.67	0.007047	0.096492	10.438940	31.549752	-3593.034631	-3213.323396
9.18	0.007039	0.096453	10.439675	33.797061	-3627.807577	-3197.145797
9.69	0.007053	0.096420	10.438798	35.833284	-3694.901007	-3216.434035
10.20	0.007016	0.096308	10.439655	34.082868	-3634.843603	-3197.581585
10.71	0.007032	0.096231	10.439623	35.235171	-3662.127461	-3198.304888
11.22	0.006996	0.096119	10.438352	36.155915	-3712.630945	-3226.262194
11.73	0.007018	0.096084	10.438071	40.079501	-3809.416398	-3232.429991
12.24	0.007001	0.096051	10.437367	42.001412	-3869.894505	-3247.917961
12.75	0.007025	0.096123	10.436846	43.758755	-3922.381993	-3259.397300
13.26	0.007006	0.096170	10.438316	41.667450	-3840.338527	-3227.057677
13.77	0.007020	0.096275	10.439803	41.367691	-3799.142393	-3194.342760
14.28	0.006989	0.096330	10.440402	38.596424	-3721.535408	-3181.166116
14.79	0.007008	0.096424	10.439225	38.175645	-3738.985088	-3207.051172
15.30	0.006972	0.096460	10.438285	35.529698	-3699.759252	-3227.734636
15.81	0.006974	0.096531	10.437508	35.006572	-3705.629183	-3244.821090
16.32	0.006907	0.096535	10.436983	32.859641	-3668.323437	-3256.378481
16.83	0.006865	0.096557	10.437682	33.200855	-3660.056430	-3240.999976
17.34	0.006755	0.096508	10.438117	32.742874	-3639.466552	-3231.415796
17.85	0.006670	0.096493	10.437522	35.164157	-3708.944436	-3244.523191
18.36	0.006553	0.096427	10.437101	34.889433	-3712.316283	-3253.772166
18.87	0.006483	0.096392	10.438226	35.621822	-3703.247281	-3229.038979
19.38	0.006387	0.096300	10.439430	35.000948	-3661.169248	-3202.534041
19.89	0.006350	0.096254	10.439980	37.450167	-3704.882189	-3190.450695
20.40	0.006280	0.096160	10.440312	38.233515	-3715.248697	-3183.138154
20.91	0.006273	0.096095	10.440391	40.571846	-3767.261397	-3181.406934
21.42	0.006224	0.095975	10.440673	40.282411	-3754.086218	-3175.194633
21.93	0.006228	0.095912	10.440675	41.270008	-3776.777470	-3175.153715
22.44	0.006188	0.095812	10.441145	38.153256	-3694.179253	-3164.802268
22.95	0.006203	0.095764	10.441185	37.508019	-3678.402659	-3163.921394
23.46	0.006168	0.095684	10.440677	35.886213	-3652.798023	-3175.109524
23.97	0.006185	0.095669	10.441389	36.734653	-3655.909981	-3159.447513
24.48	0.006162	0.095617	10.441084	36.036577	-3646.877623	-3166.160244
24.99	0.006176	0.095632	10.439473	37.457446	-3716.732270	-3201.594716
25.50	0.006148	0.095608	10.440149	35.727544	-3661.322571	-3186.725295
26.02	0.006174	0.095636	10.440655	36.291735	-3662.632881	-3175.586376
26.53	0.006150	0.095624	10.440467	34.685456	-3629.998207	-3179.727577
27.04	0.006171	0.095664	10.441344	36.112662	-3642.618740	-3160.426962
27.55	0.006147	0.095667	10.441441	35.994983	-3637.670699	-3158.291059
28.06	0.006180	0.095715	10.441577	38.006779	-3680.843384	-3155.297554
28.57	0.006162	0.095710	10.441527	37.518740	-3670.765318	-3156.400671
29.08	0.006183	0.095752	10.440779	38.934149	-3720.601468	-3172.859262
29.59	0.006159	0.095737	10.440348	37.625108	-3700.409952	-3182.343142
30.10	0.006176	0.095758	10.440261	38.561242	-3723.971280	-3184.262249
30.61	0.006148	0.095714	10.440339	37.431181	-3696.143710	-3182.531921
31.12	0.006169	0.095720	10.440998	39.087319	-3719.074213	-3168.039018
31.63	0.006143	0.095668	10.441608	37.697844	-3673.015180	-3154.613948
32.14	0.006166	0.095660	10.441388	39.072810	-3709.750662	-3159.463843
32.65	0.006143	0.095611	10.442169	37.133674	-3647.101587	-3142.283209
33.16	0.006163	0.095601	10.443270	38.249572	-3647.396967	-3118.061446
33.67	0.006136	0.095582	10.443949	35.870222	-3576.969445	-3103.127401
34.18	0.006164	0.095583	10.444086	36.916200	-3597.893230	-3100.118539
34.69	0.006148	0.095614	10.443606	36.840343	-3607.205973	-3110.667719
35.20	0.006172	0.095631	10.443737	35.596119	-3575.547495	-3107.789913
35.71	0.006160	0.095659	10.444016	36.682328	-3594.112553	-3101.647611
36.22	0.006178	0.095667	10.443929	35.512391	-3569.198490	-3103.572112
36.73	0.006152	0.095661	10.443829	34.617869	-3550.894513	-3105.754277
37.24	0.006177	0.095616	10.443946	35.032112	-3557.749651	-3103.197235
37.75	0.006148	0.095544	10.444416	34.967189	-3545.416602	-3092.858306
38.26	0.006172	0.095474	10.445163	35.518870	-3540.879748	-3076.416441
38.77	0.006155	0.095385	10.445301	34.751047	-3520.016238	-3073.374935
39.28	0.006174	0.095333	10.444643	36.011727	-3564.207218	-3087.846197
39.79	0.006152	0.095275	10.443913	33.740224	-3528.762760	-3103.914502
40.30	0.006171	0.095249	10.444195	34.940960	-3549.898563	-3097.709625
40.81	0.006145	0.095189	10.445007	33.594140	-3500.167282	-3079.844927
41.32	0.006162	0.095158	10.445669	35.746812	-3534.448232	-3065.276104
41.83	0.006140	0.095096	10.445615	33.632720	-3487.034438	-3066.470293
42.34	0.006161	0.095078	10.445328	35.630569	-3539.637453	-3072.778669
42.85	0.006137	0.095034	10.445996	33.847923	-3483.201247	-3058.088236
43.36	0.006163	0.095040	10.446096	34.306682	-3491.443710	-3055.877071
43.87	0.006139	0.095007	10.444586	33.422307	-3505.911251	-3089.097335
44.38	0.006163	0.095013	10.444308	35.407032	-3558.031003	-3095.232921
44.89	0.006137	0.094990	10.445219	34.487318	-3515.830703	-3075.173446
45.40	0.006159	0.095024	10.446292	36.525819	-3538.011002	-3051.568775
45.91	0.006135	0.095039	10.446810	35.438379	-3501.046169	-3040.186453
46.42	0.006157	0.095106	10.446047	36.622823	-3545.912669	-3056.976145
46.93	0.006130	0.095124	10.445734	35.382628	-3524.574550	-3063.854516
47.44	0.006156	0.095144	10.446585	36.497302	-3530.612094	-3045.137112
47.95	0.006136	0.095125	10.446766	35.657236	-3507.100824	-3041.156245
48.46	0.006152	0.095137	10.446599	37.356039	-3550.059653	-3044.831597
48.97	0.006125	0.095098	10.448957	36.212807	-3469.358184	-2992.953808
49.48	0.006145	0.095079	10.467238	38.029384	-3089.550147	-2590.763554
49.99	0.006121	0.094938	10.518044	37.374269	-1902.730984	-1473.036094
50.50	0.006139	0.094653	10.555491	39.898408	-1097.192150	-649.202040
51.01	0.006116	0.094047	10.564866	39.764129	-877.872688	-442.940668
51.53	0.006139	0.093104	10.567720	42.047751	-864.637240	-380.170220
52.04	0.006117	0.091742	10.568700	41.279999	-824.341508	-358.590662
52.55	0.006142	0.090157	10.569330	41.398550	-812.550364	-344.739813
53.06	0.006122	0.088439	10.570085	38.161023	-720.602177	-328.121436
53.57	0.006145	0.086824	10.570077	36.871516	-691.110384	-328.304791
54.08	0.006118	0.085351	10.570364	32.637912	-587.036364	-321.991932
54.59	0.006143	0.084176	10.570530	31.599853	-559.306926	-318.334969
55.10	0.006118	0.083208	10.570582	27.781656	-470.211855	-317.188876
55.61	0.006141	0.082517	10.571021	27.596493	-455.839528	-307.544952
56.12	0.006108	0.081983	10.570955	24.979478	-397.112394	-308.990755
56.63	0.006137	0.081624	10.570638	25.747382	-422.109886	-315.973913
57.14	0.006105	0.081319	10.570696	23.465341	-368.220750	-314.679131
57.65	0.006130	0.081137	10.570912	24.748476	-392.788005	-309.938167
58.16	0.006099	0.080953	10.571272	22.896704	-341.856184	-302.016295
58.67	0.006121	0.080856	10.571123	23.804207	-366.192157	-305.303049
59.18	0.006095	0.080747	10.571524	22.518944	-327.346017	-296.470047
59.69	0.006117	0.080701	10.572101	23.964065	-347.299296	-283.770799
60.20	0.006092	0.080627	10.571947	22.117369	-308.356010	-287.173391
60.71	0.006113	0.080601	10.571656	23.366823	-343.831521	-293.577445
61.22	0.006094	0.080528	10.571409	21.820647	-313.935945	-299.011718
61.73	0.006113	0.080488	10.571531	23.049470	-339.389513	-296.308805
62.24	0.006089	0.080406	10.571568	20.735972	-285.293638	-295.507583
62.75	0.006120	0.080379	10.571856	21.665294	-300.037815	-289.165558
63.26	0.006101	0.080348	10.571874	20.326596	-268.812338	-288.775290
63.77	0.006122	0.080381	10.571963	21.888835	-302.708713	-286.804683
64.28	0.006122	0.080396	10.572121	20.959956	-277.681514	-283.327971
64.79	0.006240	0.080461	10.572164	22.888754	-321.106992	-282.398116
65.30	0.006502	0.080474	10.572539	21.682738	-284.689194	-274.141379
65.81	0.007132	0.080519	10.572607	23.416654	-323.043348	-272.653281
66.32	0.008165	0.080511	10.572114	22.059161	-303.157230	-283.492417
66.83	0.009633	0.080533	10.572212	23.477431	-333.549731	-281.340807
67.34	0.011153	0.080502	10.572091	22.179037	-306.449925	-284.001036
67.85	0.012329	0.080510	10.572249	23.788742	-339.862063	-280.526218
68.36	0.012832	0.080463	10.572964	21.939399	-280.788561	-264.784639
68.87	0.012653	0.080458	10.573244	22.892250	-296.282594	-258.641224
69.38	0.011926	0.080420	10.573063	21.277946	-263.290669	-262.617874
69.89	0.010953	0.080428	10.572643	22.018623	-290.029242	-271.859714
70.40	0.009918	0.080396	10.572830	20.863606	-259.110851	-267.729039
70.91	0.009040	0.080418	10.572974	22.435417	-291.979842	-264.568208
71.42	0.008297	0.080398	10.572778	20.926837	-261.785626	-268.892043
71.93	0.007783	0.080419	10.573244	22.710587	-292.088169	-258.629193
72.44	0.007376	0.080408	10.573499	21.236398	-252.272146	-253.019574
72.95	0.007119	0.080433	10.573522	22.351165	-277.397629	-252.508213
73.46	0.006898	0.080421	10.573023	21.187973	-262.128634	-263.485084
73.97	0.006775	0.080459	10.572785	22.615190	-300.478847	-268.727903
74.48	0.006647	0.080448	10.573624	21.495222	-255.340287	-250.262882
74.99	0.006594	0.080478	10.574287	23.157257	-278.322288	-235.689619
75.50	0.006513	0.080466	10.574371	22.080598	-251.605720	-233.846436
76.01	0.006498	0.080487	10.573744	23.465915	-297.955358	-247.640032
76.52	0.006441	0.080474	10.573535	22.148356	-272.445595	-252.237834
77.03	0.006444	0.080512	10.574094	23.771673	-296.913083	-239.931787
77.55	0.006396	0.080508	10.573784	22.182604	-267.482600	-246.751577
78.06	0.006405	0.080542	10.573552	23.760230	-309.147797	-251.853811
78.57	0.006372	0.080517	10.573381	22.222882	-277.698618	-255.612242
79.08	0.006380	0.080521	10.572815	23.772554	-326.433083	-268.071716
79.59	0.006355	0.080486	10.572845	22.333078	-292.608561	-267.415156
80.10	0.006374	0.080491	10.573042	23.781129	-321.402119	-263.084348
80.61	0.006362	0.080459	10.572967	22.363904	-290.507900	-264.734438
81.12	0.006394	0.080482	10.572960	24.058619	-329.667853	-264.875800
81.63	0.006382	0.080473	10.573309	22.476473	-285.195409	-257.194981
82.14	0.006417	0.080519	10.573776	23.852283	-306.102814	-246.927833
82.65	0.006405	0.080536	10.573604	22.986105	-290.127906	-250.709326
83.16	0.006438	0.080585	10.573237	24.763441	-339.517354	-258.794401
83.67	0.006426	0.080587	10.573011	23.611740	-318.208583	-263.757560
84.18	0.006457	0.080616	10.573600	25.154077	-340.138706	-250.809302
84.69	0.006441	0.080609	10.574133	24.074771	-302.995325	-239.078070
85.20	0.006461	0.080630	10.574193	25.512851	-334.712604	-237.755163
85.71	0.006445	0.080616	10.573701	24.131125	-314.255727	-248.581959
86.22	0.006467	0.080615	10.573861	25.401142	-339.791096	-245.052525
86.73	0.006416	0.080546	10.573636	23.603148	-303.602445	-250.013362
87.24	0.006405	0.080500	10.572718	24.612740	-348.019826	-270.214130
87.75	0.006320	0.080388	10.572718	22.737438	-304.836286	-270.200088
88.26	0.006265	0.080309	10.573335	23.935619	-318.186063	-256.624175
88.77	0.006188	0.080230	10.573631	22.108607	-269.313138	-250.122596
89.28	0.006241	0.080305	10.573786	23.932989	-307.727659	-246.705587
89.79	0.006281	0.080444	10.573707	23.200847	-292.702019	-248.449350
90.30	0.006294	0.080620	10.573636	25.935295	-357.279223	-250.005316
90.81	0.006295	0.080663	10.572981	24.444840	-338.083025	-264.422205
91.32	0.006349	0.080624	10.572707	26.174553	-384.225916	-270.456124
91.83	0.006369	0.080524	10.573276	24.237302	-326.491138	-257.921882
92.34	0.006370	0.080457	10.573379	25.752057	-358.987991	-255.658951
92.85	0.006385	0.080357	10.573632	23.998110	-312.772468	-250.087905
93.36	0.006386	0.080336	10.573732	25.470398	-344.366737	-247.896487
93.87	0.006388	0.080286	10.573899	23.933204	-305.132773	-244.225593
94.38	0.006394	0.080280	10.574175	25.394271	-332.397131	-238.150261
94.89	0.006398	0.080200	10.574424	23.778068	-289.445270	-232.667762
95.40	0.006410	0.080135	10.575320	24.623430	-288.256032	-212.970424
95.91	0.006413	0.080048	10.575326	23.081993	-252.616339	-212.821271
96.42	0.006413	0.080041	10.574278	24.450333	-308.285828	-235.877905
96.93	0.006413	0.080022	10.575019	22.571910	-247.961381	-219.581593
97.44	0.006417	0.080046	10.575186	23.773414	-271.759135	-215.899072
97.95	0.006417	0.079999	10.573835	22.308230	-269.205292	-245.636303
98.46	0.006450	0.079966	10.570379	22.171589	-345.754854	-321.657757
98.97	0.006450	0.079901	10.564907	15.086531	-308.867189	-442.048144
99.48	0.006455	0.079942	10.559969	1.035472	-99.301415	-550.683445
99.99	0.006458	0.080039	10.551704	-28.575538	391.724742	-732.506484
100.50	0.006460	0.080261	10.539588	-67.008477	997.004936	-999.058970
101.01	0.006460	0.080499	10.530669	-107.645511	1726.739272	-1195.292774
101.52	0.006460	0.080804	10.527043	-138.315933	2349.143225	-1275.057045
102.03	0.006460	0.081060	10.525027	-156.797259	2728.088120	-1319.403055
102.54	0.006460	0.081340	10.524102	-163.312438	2856.727432	-1339.757370
103.06	0.006460	0.081591	10.524133	-160.291906	2787.922316	-1339.064368
103.57	0.006460	0.081891	10.525375	-148.743967	2550.715455	-1311.760973
104.08	0.006460	0.082123	10.526750	-131.331341	2181.595011	-1281.510498
104.59	0.006460	0.082339	10.528596	-109.151260	1713.604479	-1240.886216
105.10	0.006460	0.082434	10.532403	-86.607151	1282.447175	-1157.133004
105.61	0.006460	0.082501	10.536357	-63.868673	850.207232	-1070.144452
106.12	0.006469	0.082482	10.539373	-45.811113	504.088831	-1003.790373
106.63	0.006473	0.082528	10.541425	-29.499522	175.915341	-958.657534
107.14	0.006473	0.082582	10.542085	-18.145960	-70.208474	-944.128324
107.65	0.006473	0.082732	10.542349	-7.300713	-313.771274	-938.318027
108.16	0.006512	0.082851	10.542632	-0.819074	-456.442207	-932.085042
108.67	0.006539	0.082987	10.542736	6.276468	-617.398984	-929.814585
109.18	0.006543	0.083031	10.542643	9.231427	-687.551210	-931.846461
109.69	0.006599	0.083085	10.542317	13.759374	-799.311443	-939.027878
110.20	0.007351	0.083074	10.542561	14.521543	-811.228514	-933.659513
110.71	0.016316	0.083124	10.542450	17.837506	-890.125441	-936.105879
111.22	0.060512	0.083145	10.542580	17.796851	-886.182959	-933.237857
111.73	0.160304	0.083204	10.542519	20.703467	-954.494277	-934.575247
112.24	0.160304	0.083205	10.542553	20.212743	-942.411608	-933.825112
112.75	0.160304	0.083234	10.542515	22.188768	-988.788009	-934.673118
113.26	0.160304	0.083205	10.542292	21.609452	-980.595015	-939.578724
113.77	0.160304	0.083230	10.543028	23.158081	-999.277785	-923.394638
114.28	0.160304	0.083212	10.543139	21.958916	-969.110124	-920.949503
114.79	0.160304	0.083220	10.542776	22.699645	-994.534437	-928.936539
115.30	0.160304	0.083185	10.542698	20.720150	-950.765136	-930.651656
115.81	0.160304	0.083172	10.542877	21.382321	-961.866016	-926.700523
116.32	0.160304	0.083107	10.542989	19.113996	-907.076125	-924.245332
116.83	0.160304	0.083084	10.542558	19.690873	-930.292982	-933.724608
117.34	0.160304	0.083026	10.542526	17.578815	-882.407477	-934.424167
117.85	0.160304	0.083013	10.542491	18.196433	-897.439846	-935.201607
118.36	0.160304	0.082969	10.542506	16.340950	-854.372459	-934.863152
118.87	0.160304	0.082987	10.542927	17.263622	-865.896210	-925.595162
119.38	0.160304	0.082975	10.543218	16.092560	-832.230799	-919.196414
119.89	0.160304	0.083007	10.543413	17.160163	-852.315611	-914.912370
120.40	0.160304	0.082980	10.543602	15.837429	-817.520276	-910.766275
120.91	0.160304	0.082979	10.543022	18.596359	-894.391948	-923.512409
121.42	0.160304	0.082917	10.542286	18.956394	-919.656482	-939.706517
121.93	0.160304	0.082907	10.542317	23.703905	-1028.226370	-939.023334
122.44	0.108470	0.082862	10.542447	26.686548	-1093.900275	-936.175427
122.95	0.069177	0.082878	10.542486	31.319272	-1199.639182	-935.312329
123.46	0.039260	0.082868	10.542471	28.123471	-1126.423751	-935.646974
123.97	0.016982	0.082900	10.542139	25.930978	-1083.593153	-942.934663
124.48	0.001572	0.082895	10.541974	25.185133	-1070.231201	-946.566307
124.99	0.000000	0.082941	10.542012	25.300021	-1072.000260	-945.731046
125.50	0.000000	0.082948	10.542343	22.231107	-993.732356	-938.459855
126.01	0.000000	0.082995	10.542197	21.341657	-976.627372	-941.674370
126.52	0.000000	0.082996	10.542069	21.256302	-977.606417	-944.482563
127.03	0.000000	0.083033	10.542154	20.575864	-959.984898	-942.614748
127.54	0.000000	0.083026	10.541823	20.523862	-966.425944	-949.900778
128.05	0.000000	0.083068	10.542024	20.555260	-962.516272	-945.481883
128.56	0.000000	0.083063	10.542041	20.223877	-954.476858	-945.089735
129.08	0.000000	0.083093	10.542288	20.101828	-945.970088	-939.655105
129.59	-0.003236	0.083073	10.542558	19.345147	-922.338142	-933.728093
130.10	0.001286	0.083087	10.542125	19.247088	-930.065240	-943.252251
130.61	0.004823	0.083060	10.541920	19.127435	-932.047167	-947.770234
131.12	0.007211	0.083071	10.541783	19.175899	-936.311754	-950.774053
131.63	0.008191	0.083044	10.540788	18.873603	-952.308699	-972.671600
132.14	0.007811	0.083050	10.539910	18.898704	-973.132052	-991.983920
132.65	0.006075	0.083008	10.540180	16.849648	-919.728043	-986.035892
133.16	0.003307	0.082990	10.545286	16.772802	-800.195711	-873.700827
133.67	-0.000270	0.082908	10.562858	16.167557	-381.006027	-487.123975
134.18	-0.004301	0.082842	10.577858	15.694106	-24.162506	-157.125433
134.69	-0.008373	0.082686	10.571807	14.962765	-146.885506	-290.250735
135.20	-0.011914	0.082521	10.571305	14.258284	-142.237306	-301.286173
135.71	-0.014734	0.082271	10.588616	13.192091	281.557203	79.561481
136.22	-0.016569	0.082046	10.604219	12.232801	663.483233	422.818028
136.73	-0.017369	0.081777	10.610397	11.083945	832.414254	558.734960
137.24	-0.017054	0.081562	10.604341	10.163703	713.922764	425.498119
137.75	-0.015762	0.081323	10.586800	9.141908	332.902805	39.604096
138.26	-0.013634	0.081161	10.582334	8.452631	245.773591	-58.644437
138.77	-0.010942	0.081010	10.596698	7.806918	591.915053	257.362732
139.28	-0.007894	0.080954	10.608720	7.567022	874.703979	521.848746
139.79	-0.004793	0.080882	10.612006	7.260049	957.541721	594.127396
140.30	-0.001998	0.080853	10.603610	6.629632	778.424784	409.423784
140.81	0.000234	0.080772	10.585551	6.096392	374.190680	12.113646
141.32	0.001834	0.080723	10.583749	5.859341	338.096315	-27.522257
141.83	0.002660	0.080651	10.600258	5.536757	726.264539	335.669902
142.34	0.002795	0.080660	10.611725	3.540002	1036.690635	587.941037
142.85	0.002234	0.080657	10.614100	2.089367	1124.861379	640.193692
143.36	0.001152	0.080714	10.604343	2.121000	899.104329	425.537526
143.87	-0.000348	0.080718	10.585752	-0.734582	536.087806	16.549719
144.38	-0.002049	0.080744	10.586533	-35.152424	1346.380966	33.725933
144.89	-0.003919	0.080729	10.603155	-201.687537	5563.314148	399.407221
145.40	-0.005305	0.080753	10.613154	-301.381397	8088.837802	619.382585
145.91	-0.006752	0.080715	10.615141	-324.308282	8662.429955	663.093480
146.42	-0.007808	0.080653	10.607542	-324.318815	8487.426566	495.925559
146.93	-0.008077	0.080327	10.595014	-324.375070	8199.789768	220.312076
147.44	-0.008371	0.079522	10.591760	-324.513570	8127.915084	148.709200
147.95	-0.007939	0.077645	10.595655	-324.836605	8225.182295	234.399487
148.46	-0.007302	0.074119	10.600502	-325.443476	8350.941945	341.036252
148.97	-0.006281	0.068403	10.605825	-326.427227	8496.358787	458.148354
149.48	-0.005570	0.060646	10.612812	-327.762249	8688.232375	611.862371
149.99	-0.004458	0.051460	10.619589	-329.343275	8880.929946	760.960501
150.50	-0.003378	0.041898	10.646952	-330.989009	9549.897834	1362.954392
151.01	-0.002857	0.032779	10.645086	-332.558438	9542.968140	1321.881723
151.52	-0.002137	0.024837	10.601643	-333.925358	8572.506932	366.138233
152.03	-0.001673	0.018262	10.604218	-335.057002	8657.958761	422.801881
152.54	-0.001639	0.013124	10.604670	-335.941241	8688.739317	432.746983
153.05	-0.001437	0.009171	10.606988	-336.621584	8757.859961	483.742168
153.56	-0.001458	0.006244	10.608525	-337.125381	8804.897466	517.548812
154.07	-0.001918	0.004032	10.607293	-337.506080	8785.241546	490.439333
154.59	-0.001885	0.002438	10.597211	-337.780351	8559.049711	268.651184
155.10	-0.002256	0.001227	10.603155	-337.988900	8700.924497	399.406831
155.61	-0.002620	0.000384	10.602674	-338.133985	8693.168667	388.822641
156.12	-0.002645	-0.000253	10.604276	-338.243594	8732.640177	424.067862
156.63	-0.003135	-0.000673	10.603108	-338.371267	8708.635287	398.365952
157.14	-0.003152	-0.001012	10.602902	-338.603779	8709.235696	393.833066
157.65	-0.003405	-0.001236	10.602185	-339.068926	8703.409821	378.061770
158.16	-0.003477	-0.001461	10.602270	-340.572951	8740.006874	379.945651
158.67	-0.003634	-0.001602	10.597061	-366.309424	9212.319002	265.350469
159.18	-0.003852	-0.001754	10.596923	-Inf	Inf	262.295510
159.69	-0.003805	-0.001824	10.596958	-Inf	Inf	263.082979
160.20	-0.003951	-0.001876	10.608830	-Inf	Inf	524.250342
160.71	-0.003867	-0.001844	10.612584	-Inf	Inf	606.837037
161.22	-0.003938	-0.001795	10.612054	-Inf	Inf	595.180301
161.73	-0.003784	-0.001682	10.610066	-Inf	Inf	551.455754
162.24	-0.003668	-0.001590	10.602215	-Inf	Inf	378.723775
162.75	-0.003283	-0.001459	10.602942	-Inf	Inf	394.721453
163.26	-0.003056	-0.001388	10.603528	-Inf	Inf	407.607391
163.77	-0.002781	-0.001309	10.604732	-327.040565	8485.271631	434.104236
164.28	-0.002391	-0.001295	10.604852	-365.979319	9384.387011	436.735648
164.79	-0.002044	-0.001286	10.603139	-345.555645	8874.736879	399.052463
165.30	-0.001759	-0.001339	10.607215	-343.323374	8917.368728	488.736666
165.81	-0.001523	-0.001374	10.606218	-342.827481	8882.960193	466.803283
166.32	-0.001359	-0.001460	10.602443	-343.357605	8808.099848	383.752864
166.83	-0.001398	-0.001498	10.602651	-345.004285	8850.806955	388.332658
167.34	-0.001451	-0.001581	10.602522	-351.393166	8994.887630	385.481266
167.85	-0.001645	-0.001623	10.602383	-172.241615	4867.668243	382.417346
168.36	-0.001904	-0.001680	10.602745	-327.422788	8448.237581	390.384193
168.87	-0.002212	-0.001694	10.603437	-332.618840	8583.807541	405.607194
169.38	-0.002552	-0.001719	10.604093	-334.220092	8635.794601	420.036720
169.89	-0.002911	-0.001696	10.604036	-335.024854	8653.009457	418.786628
170.40	-0.003177	-0.001693	10.602711	-335.381343	8630.658018	389.637502
170.91	-0.003380	-0.001635	10.603091	-335.602878	8644.537558	398.012669
171.42	-0.003499	-0.001609	10.602862	-335.597370	8639.124329	392.969917
171.93	-0.003486	-0.001525	10.602485	-335.530330	8628.885058	384.674721
172.44	-0.003383	-0.001468	10.602393	-335.229719	8619.841369	382.648887
172.95	-0.003172	-0.001362	10.602318	-334.767051	8607.455870	380.993815
173.46	-0.002855	-0.001303	10.602726	-333.647341	8591.099008	389.978152
173.97	-0.002510	-0.001222	10.602946	-331.166478	8539.067989	394.821706
174.48	-0.002135	-0.001205	10.603290	-321.562412	8325.917404	402.387817
174.99	-0.001791	-0.001173	10.603063	-476.472061	11886.652031	397.396517
175.50	-0.001468	-0.001209	10.601847	-356.388573	9094.309129	370.627950
176.01	-0.001268	-0.001223	10.603356	-350.882968	9002.376931	403.828559
176.52	-0.001099	-0.001306	10.603290	-351.090297	9005.627365	402.376511
177.03	-0.001061	-0.001362	10.603002	-355.021150	9089.483130	396.051041
177.54	-0.001111	-0.001459	10.603001	-373.149866	9506.762515	396.015328
178.05	-0.001233	-0.001513	10.603086	-218.366774	5945.687296	397.902727
178.56	-0.001445	-0.001580	10.602571	-316.931380	8202.722649	386.562543
179.07	-0.001684	-0.001584	10.602759	-327.050295	8439.987003	390.693335
179.58	-0.001933	-0.001606	10.602593	-329.849616	8500.595427	387.038939
180.09	-0.002203	-0.001569	10.602632	-331.787223	8546.109576	387.908032
180.61	-0.002396	-0.001558	10.603069	-332.694479	8577.061702	397.511395
181.12	-0.002568	-0.001497	10.602710	-333.087124	8577.834562	389.626695
181.63	-0.002638	-0.001480	10.602190	-333.323078	8571.255921	378.170080
182.14	-0.002664	-0.001430	10.602447	-333.229753	8575.049458	383.838051
182.65	-0.002588	-0.001411	10.603071	-332.869165	8581.134871	397.560940
183.16	-0.002462	-0.001349	10.603045	-332.274635	8566.855411	396.994716
183.67	-0.002273	-0.001315	10.604143	-331.687277	8578.650965	421.144106
184.18	-0.002063	-0.001252	10.602187	-330.449415	8505.035417	378.103543
184.69	-0.001823	-0.001233	10.603217	-328.131216	8475.429964	400.767087
185.20	-0.001623	-0.001199	10.605476	-326.619233	8492.732932	450.473457
185.71	-0.001413	-0.001222	10.607751	-322.428527	8448.726391	500.517287
186.22	-0.001280	-0.001204	10.607203	-318.343795	8342.059372	488.461955
186.73	-0.001179	-0.001268	10.607283	-316.859921	8309.754195	490.229614
187.24	-0.001156	-0.001250	10.607334	-314.200505	8249.715906	491.355768
187.75	-0.001177	-0.001322	10.603481	-313.179845	8137.359645	406.590789
188.26	-0.001259	-0.001287	10.602566	-319.682545	8265.945463	386.459474
188.77	-0.001367	-0.001344	10.602465	-318.529851	8237.082534	384.238480
189.28	-0.001513	-0.001287	10.602343	-322.460545	8324.753437	381.555800
189.79	-0.001648	-0.001303	10.605547	-324.482349	8445.172730	452.028437
190.30	-0.001794	-0.001221	10.602899	-325.458066	8406.577077	393.786510
190.81	-0.001902	-0.001213	10.602858	-327.525946	8453.231070	392.882301
191.32	-0.001997	-0.001130	10.602898	-328.305668	8472.097033	393.757068
191.83	-0.002036	-0.001133	10.606503	-329.016704	8571.599039	473.059194
192.34	-0.002052	-0.001103	10.608401	-329.447283	8625.285409	514.815995
192.85	-0.002003	-0.001128	10.608741	-329.638748	8637.546947	522.308058
193.36	-0.001936	-0.001116	10.607215	-330.206537	8615.412816	488.726364
193.87	-0.001828	-0.001155	10.602209	-329.827448	8491.239180	378.600740
194.38	-0.001714	-0.001145	10.602484	-330.204731	8506.273506	384.657478
194.89	-0.001581	-0.001194	10.603735	-329.679305	8523.028204	412.177463
195.40	-0.001467	-0.001187	10.603550	-329.881689	8523.409476	408.097091
195.91	-0.001355	-0.001214	10.603715	-329.348307	8514.946650	411.736672
196.42	-0.001284	-0.001198	10.603256	-329.188161	8500.676812	401.641178
196.93	-0.001228	-0.001207	10.603104	-328.058874	8471.159845	398.282324
197.44	-0.001219	-0.001170	10.602964	-327.641310	8458.316112	395.199711
197.95	-0.001223	-0.001170	10.602791	-326.590392	8430.135684	391.394930
198.46	-0.001270	-0.001135	10.603459	-325.104407	8411.352281	406.107454
198.97	-0.001318	-0.001148	10.604895	-322.706095	8389.242220	437.680049
199.48	-0.001391	-0.001133	10.604901	-320.437108	8337.155619	437.818068
199.99	-0.001457	-0.001153	10.604908	-317.315294	8265.457140	437.975098
200.50	-0.001525	-0.001129	10.604907	-315.279416	8218.560670	437.945279
201.01	-0.001570	-0.001145	10.604909	-315.599411	8225.983845	437.999650
201.52	-0.001615	-0.001115	10.604909	-317.001523	8258.258578	437.998308
202.03	-0.001619	-0.001125	10.604909	-319.336874	8312.010854	437.991926
202.54	-0.001628	-0.001098	10.604911	-322.290363	8380.059578	438.049544
203.05	-0.001586	-0.001105	10.604907	-324.414913	8428.876548	437.964222
203.56	-0.001557	-0.001083	10.604889	-326.490272	8476.218902	437.552429
204.07	-0.001487	-0.001099	10.604889	-327.781423	8505.956454	437.567407
204.58	-0.001435	-0.001071	10.604902	-328.901531	8532.031632	437.844672
205.09	-0.001354	-0.001090	10.604902	-329.300895	8541.227260	437.846969
205.60	-0.001301	-0.001061	10.604889	-329.837052	8553.276863	437.567924
206.12	-0.001242	-0.001067	10.602674	-329.757823	8500.357211	388.827348
206.63	-0.001213	-0.001030	10.602660	-329.797451	8500.942542	388.515512
207.14	-0.001181	-0.001015	10.603286	-329.371722	8505.582938	402.290418
207.65	-0.001176	-0.000946	10.604738	-329.057855	8531.846322	434.235252
208.16	-0.001173	-0.000919	10.603100	-328.094848	8471.898036	398.196545
208.67	-0.001192	-0.000859	10.603057	-327.099706	8448.013353	397.264707
209.18	-0.001204	-0.000841	10.602830	-325.250931	8400.208230	392.259611
209.69	-0.001240	-0.000797	10.602850	-323.227851	8354.089260	392.690433
210.20	-0.001267	-0.000804	10.602675	-320.696151	8291.793875	388.859056
210.71	-0.001302	-0.000787	10.603027	-318.459470	8248.416825	396.595796
211.22	-0.001315	-0.000822	10.603655	-316.835052	8225.495703	410.401106
211.73	-0.001339	-0.000801	10.603205	-318.312785	8249.152156	400.518227
212.24	-0.001338	-0.000824	10.603004	-319.757305	8277.756934	396.084875
212.75	-0.001334	-0.000794	10.602632	-323.026551	8344.446876	387.912790
213.26	-0.001312	-0.000788	10.602281	-325.285283	8388.339477	380.183629
213.77	-0.001297	-0.000757	10.602159	-327.399875	8434.210392	377.506712
214.28	-0.001254	-0.000759	10.602219	-328.687135	8465.220109	378.820651
214.79	-0.001228	-0.000725	10.602094	-329.847542	8489.051440	376.072603
215.30	-0.001193	-0.000733	10.602349	-330.319665	8505.791554	381.673951
215.81	-0.001164	-0.000692	10.602731	-330.959706	8529.331714	390.074637
216.32	-0.001139	-0.000709	10.602468	-330.861828	8521.020106	384.295410
216.83	-0.001118	-0.000685	10.602581	-330.894625	8524.371918	386.772556
217.34	-0.001101	-0.000718	10.602957	-330.153491	8516.004242	395.064829
217.85	-0.001104	-0.000718	10.604031	-329.489368	8525.481120	418.688057
218.36	-0.001098	-0.000768	10.603619	-327.930960	8480.087615	409.607361
218.87	-0.001111	-0.000774	10.602699	-326.481751	8425.525564	389.382905
219.38	-0.001113	-0.000814	10.602772	-324.354207	8378.228813	390.984125
219.89	-0.001127	-0.000801	10.602339	-322.557068	8326.884155	381.468797
220.40	-0.001136	-0.000831	10.602197	-320.298307	8271.601882	378.333895
220.91	-0.001142	-0.000811	10.602915	-319.222899	8263.403719	394.128049
221.42	-0.001140	-0.000850	10.602888	-317.918070	8232.750502	393.539965
221.93	-0.001148	-0.000848	10.602581	-318.312658	8234.742954	386.776002
222.44	-0.001138	-0.000898	10.602327	-318.513676	8233.513308	381.188965
222.95	-0.001135	-0.000910	10.602456	-319.825105	8266.685680	384.035163
223.46	-0.001114	-0.000951	10.602501	-320.866477	8291.688419	385.018364
223.97	-0.001108	-0.000937	10.602857	-322.511064	8337.769546	392.862609
224.48	-0.001086	-0.000962	10.603292	-323.405835	8368.401805	402.434978
224.99	-0.001072	-0.000922	10.603183	-324.828527	8398.616794	400.016924
225.50	-0.001059	-0.000920	10.604371	-325.485251	8441.132092	426.151762
226.01	-0.001053	-0.000881	10.604867	-326.268251	8470.609569	437.076931
226.52	-0.001039	-0.000883	10.604877	-326.328420	8472.232811	437.304109
227.03	-0.001042	-0.000865	10.603512	-326.285301	8439.737301	407.253307
227.54	-0.001030	-0.000901	10.602716	-325.358309	8400.048016	389.748922
228.05	-0.001037	-0.000883	10.602600	-324.879315	8386.350747	387.201046
228.56	-0.001032	-0.000895	10.602469	-323.796921	8358.407775	384.313939
229.07	-0.001044	-0.000850	10.603445	-323.359960	8370.861007	405.788163
229.58	-0.001043	-0.000826	10.603959	-322.664501	8366.716982	417.106440
230.09	-0.001052	-0.000765	10.602473	-322.616735	8331.346724	384.415447
230.60	-0.001047	-0.000756	10.602536	-321.959802	8317.662520	385.787335
231.11	-0.001052	-0.000723	10.602655	-321.950169	8320.200051	388.419413
231.62	-0.001049	-0.000759	10.602774	-321.010712	8301.305576	391.025006
232.14	-0.001050	-0.000767	10.603228	-320.900887	8309.241404	401.006632
232.65	-0.001041	-0.000830	10.604122	-320.172509	8313.092672	420.674522
233.16	-0.001038	-0.000853	10.603899	-320.337888	8311.769272	415.780635
233.67	-0.001026	-0.000909	10.603335	-320.163797	8294.743194	403.362163
234.18	-0.001020	-0.000917	10.603676	-320.843232	8318.246444	410.862617
234.69	-0.001008	-0.000952	10.603033	-320.969320	8306.320923	396.718095
235.20	-0.001002	-0.000930	10.602541	-321.861803	8315.537430	385.912105
235.71	-0.000989	-0.000940	10.602302	-322.142972	8316.494021	380.650538
236.22	-0.000989	-0.000912	10.602573	-322.668292	8334.834898	386.610727
236.73	-0.000972	-0.000920	10.602774	-322.607542	8338.070767	391.031422
237.24	-0.000973	-0.000883	10.602889	-322.839856	8346.069503	393.560177
237.75	-0.000964	-0.000900	10.602989	-322.253253	8334.870579	395.758410
238.26	-0.000970	-0.000871	10.602860	-322.041718	8327.031166	392.925376
238.77	-0.000956	-0.000870	10.603140	-321.478228	8320.520931	399.088659
239.28	-0.000960	-0.000831	10.602873	-321.256846	8309.253632	393.201948
239.79	-0.000956	-0.000815	10.603235	-320.926099	8309.982744	401.160185
240.30	-0.000959	-0.000762	10.603290	-321.265908	8319.090005	402.385942
240.81	-0.000953	-0.000755	10.602984	-321.028292	8306.551806	395.643398
241.32	-0.000951	-0.000726	10.603048	-321.231110	8312.708036	397.062251
241.83	-0.000941	-0.000743	10.602793	-320.774703	8296.315450	391.447333
242.34	-0.000947	-0.000715	10.602481	-321.377884	8302.996127	384.575061
242.85	-0.000939	-0.000727	10.602690	-321.382864	8307.947247	389.188623
243.36	-0.000938	-0.000703	10.602531	-322.101754	8320.808698	385.671417
243.87	-0.000921	-0.000724	10.602275	-322.085370	8314.547716	380.058812
244.38	-0.000924	-0.000698	10.602672	-323.000066	8344.749902	388.783403
244.89	-0.000911	-0.000714	10.602925	-323.071954	8352.243821	394.353340
245.40	-0.000912	-0.000677	10.602762	-324.005135	8369.956068	390.757825
245.91	-0.000895	-0.000671	10.602702	-324.367967	8376.935917	389.448668
246.42	-0.000901	-0.000627	10.602647	-325.265371	8396.326165	388.239419
246.93	-0.000890	-0.000611	10.603114	-325.565460	8413.993190	398.502557
247.44	-0.000888	-0.000549	10.602704	-326.662395	8429.789899	389.483989
247.95	-0.000878	-0.000543	10.604904	-326.654277	8480.355171	437.896721
248.46	-0.000874	-0.000509	10.604913	-326.999386	8488.506970	438.094676
248.97	-0.000862	-0.000545	10.604912	-325.949031	8464.307524	438.074993
249.48	-0.000864	-0.000565	10.604913	-325.138370	8445.654744	438.082959
249.99	-0.000851	-0.000632	10.604912	-323.205085	8401.142640	438.074803
250.50	-0.000852	-0.000658	10.604911	-322.259820	8379.356173	438.049256
251.01	-0.000843	-0.000719	10.604914	-320.438235	8337.489650	438.111971
251.52	-0.000843	-0.000720	10.604914	-320.166511	8331.237339	438.114532
252.03	-0.000836	-0.000748	10.604912	-319.509862	8316.066740	438.062275
252.54	-0.000832	-0.000720	10.604912	-320.113581	8329.974451	438.072109
253.05	-0.000830	-0.000724	10.604913	-320.224932	8332.544882	438.078943
253.56	-0.000833	-0.000678	10.604908	-321.387901	8359.198913	437.967238
254.07	-0.000825	-0.000691	10.601947	-321.274737	8288.308295	372.829232
254.58	-0.000826	-0.000671	10.601911	-321.895068	8301.756940	372.036387
255.09	-0.000820	-0.000694	10.603109	-321.431598	8318.729687	398.403902
255.60	-0.000816	-0.000663	10.603454	-322.151737	8343.263721	405.993838
256.11	-0.000806	-0.000663	10.602739	-322.260425	8329.259652	390.248640
256.62	-0.000808	-0.000615	10.602379	-323.283357	8344.511041	382.334893
257.13	-0.000798	-0.000608	10.602446	-323.432065	8349.471488	383.801281
257.65	-0.000797	-0.000563	10.602291	-324.265570	8365.102858	380.409552
258.16	-0.000789	-0.000578	10.602466	-323.799146	8358.397816	384.255572
258.67	-0.000788	-0.000567	10.602207	-323.782455	8352.027004	378.544936
259.18	-0.000779	-0.000606	10.602342	-322.604440	8328.037596	381.528838
259.69	-0.000782	-0.000602	10.604879	-322.500528	8384.147697	437.334303
260.20	-0.000775	-0.000633	10.604891	-321.620879	8364.167569	437.591002
260.71	-0.000772	-0.000618	10.602819	-321.775230	8319.945944	392.018427
261.22	-0.000763	-0.000633	10.602286	-321.447041	8300.105103	380.298721
261.73	-0.000765	-0.000605	10.602484	-321.989094	8317.133366	384.639361
262.24	-0.000755	-0.000621	10.601871	-321.686663	8296.047135	371.166038
262.75	-0.000760	-0.000590	10.601585	-322.407450	8306.036573	364.867580
263.26	-0.000759	-0.000608	10.601902	-322.128131	8306.913402	371.837431
263.77	-0.000758	-0.000590	10.602547	-322.584513	8332.312061	386.043832
264.28	-0.000755	-0.000613	10.602545	-322.119489	8321.553732	385.992676
264.79	-0.000758	-0.000608	10.602629	-322.167600	8324.598989	387.841110
265.30	-0.000756	-0.000646	10.602936	-321.271351	8311.046258	394.593453
265.81	-0.000761	-0.000644	10.603373	-321.256824	8320.794361	404.211196
266.32	-0.000755	-0.000674	10.603023	-320.493391	8295.146739	396.509706
266.83	-0.000760	-0.000661	10.602755	-320.684861	8293.380430	390.620411
267.34	-0.000751	-0.000670	10.602505	-320.403053	8281.112999	385.106527
267.85	-0.000757	-0.000632	10.602558	-321.204785	8300.791779	386.273334
268.36	-0.000750	-0.000627	10.602743	-321.253815	8306.193803	390.349717
268.87	-0.000750	-0.000573	10.603078	-322.516644	8342.977324	397.707802
269.38	-0.000744	-0.000562	10.603033	-322.717807	8346.573574	396.721029
269.89	-0.000740	-0.000511	10.602442	-323.952252	8361.367689	383.726563
270.40	-0.000735	-0.000525	10.602506	-323.565963	8353.954824	385.137753
270.91	-0.000735	-0.000499	10.604307	-324.025401	8406.058239	424.750851
271.42	-0.000722	-0.000541	10.603730	-322.855082	8365.809045	412.055484
271.93	-0.000720	-0.000543	10.602906	-322.658185	8342.270034	393.925075
272.44	-0.000714	-0.000576	10.602874	-321.805522	8321.919214	393.235581
272.95	-0.000711	-0.000556	10.604884	-322.171453	8376.700978	437.456855
273.46	-0.000709	-0.000567	10.604892	-321.909455	8370.840050	437.619188
273.97	-0.000714	-0.000540	10.604891	-322.604656	8386.821660	437.598511
274.48	-0.000709	-0.000560	10.602732	-322.085944	8325.084203	390.097020
274.99	-0.000716	-0.000548	10.602588	-322.343543	8327.708265	386.943602
275.50	-0.000711	-0.000584	10.602899	-321.243743	8309.566340	393.787962
276.01	-0.000720	-0.000601	10.602890	-320.581347	8294.108700	393.588109
276.52	-0.000715	-0.000678	10.602724	-318.458539	8241.404107	389.926765
277.03	-0.000719	-0.000712	10.603158	-317.285552	8224.406742	399.470000
277.54	-0.000715	-0.000784	10.603456	-315.119397	8181.413577	406.024263
278.05	-0.000711	-0.000793	10.604857	-314.441078	8198.109069	436.845107
278.56	-0.000701	-0.000810	10.604865	-314.017662	8188.548770	437.023091
279.07	-0.000699	-0.000751	10.603324	-315.465193	8186.331932	403.122733
279.58	-0.000687	-0.000709	10.603392	-316.766411	8217.858349	404.623065
280.09	-0.000686	-0.000607	10.602915	-319.513017	8270.089762	394.135329
280.60	-0.000678	-0.000552	10.602958	-321.287463	8311.912472	395.065940
281.11	-0.000673	-0.000471	10.602742	-323.604914	8360.293267	390.328700
281.62	-0.000664	-0.000462	10.604757	-323.843083	8412.231987	434.643474
282.13	-0.000666	-0.000430	10.604891	-324.677661	8434.551701	437.608220
282.64	-0.000663	-0.000461	10.604891	-323.647132	8410.827893	437.606896
283.15	-0.000656	-0.000455	10.604888	-323.621792	8410.167191	437.533078
283.67	-0.000645	-0.000489	10.602836	-322.600792	8339.335679	392.386241
284.18	-0.000649	-0.000480	10.602501	-322.629335	8332.275386	385.024627
284.69	-0.000643	-0.000507	10.602668	-321.803398	8317.108211	388.692968
285.20	-0.000647	-0.000480	10.602743	-322.503917	8334.968815	390.347904
285.71	-0.000649	-0.000492	10.602662	-322.086088	8323.482251	388.565746
286.22	-0.000652	-0.000458	10.602782	-323.067612	8348.839609	391.201398
286.73	-0.000644	-0.000475	10.602370	-322.465458	8325.478745	382.139779
287.24	-0.000655	-0.000459	10.602541	-322.944363	8340.444460	385.899589
287.75	-0.000648	-0.000500	10.603030	-321.648139	8321.883193	396.657133
288.26	-0.000655	-0.000500	10.604904	-321.462236	8360.822008	437.883221
288.77	-0.000653	-0.000547	10.604908	-319.945462	8326.010043	437.982096
289.28	-0.000646	-0.000556	10.604907	-319.493916	8315.595399	437.962819
289.79	-0.000643	-0.000600	10.602489	-317.937833	8223.992627	384.751820
290.30	-0.000637	-0.000589	10.602420	-318.021310	8224.321555	383.232558
290.81	-0.000620	-0.000608	10.602566	-317.442986	8214.392929	386.460759
291.32	-0.000620	-0.000579	10.602903	-318.193426	8239.427479	393.862742
291.83	-0.000609	-0.000569	10.603310	-318.495811	8255.769232	402.811291
292.34	-0.000610	-0.000518	10.602854	-320.078268	8281.686725	392.785622
292.85	-0.000604	-0.000492	10.602445	-320.957814	8292.495218	383.782337
293.36	-0.000601	-0.000429	10.602343	-323.002645	8337.222564	381.546424
293.87	-0.000593	-0.000420	10.602362	-323.386939	8346.506627	381.963982
294.38	-0.000596	-0.000387	10.602482	-324.426976	8373.205792	384.594727
294.89	-0.000589	-0.000420	10.603416	-323.197206	8366.438540	405.143407
295.40	-0.000591	-0.000433	10.602702	-322.563655	8335.395746	389.443395
295.91	-0.000586	-0.000510	10.602525	-319.806496	8267.843570	385.548306
296.42	-0.000600	-0.000544	10.602915	-318.311663	8242.438393	394.138568
296.93	-0.000596	-0.000609	10.603141	-316.109108	8196.944741	399.106896
297.44	-0.000600	-0.000613	10.603450	-315.910073	8199.494372	405.909523
297.95	-0.000596	-0.000637	10.603127	-314.998002	8171.031317	398.786248
298.46	-0.000599	-0.000607	10.602968	-316.031650	8191.176668	395.305563
298.97	-0.000593	-0.000620	10.603038	-315.649219	8183.977552	396.835926
299.48	-0.000593	-0.000590	10.602777	-316.656907	8201.161689	391.100588
299.99	-0.000586	-0.000606	10.601568	-316.247365	8163.837735	364.490030
300.50	-0.000589	-0.000587	10.601990	-316.740491	8184.929832	373.781532
301.01	-0.000583	-0.000605	10.602666	-316.225659	8188.676252	388.660247
301.52	-0.000584	-0.000562	10.602815	-317.530085	8222.127029	391.925779
302.03	-0.000583	-0.000566	10.602942	-317.572386	8226.030469	394.720437
302.54	-0.000581	-0.000527	10.603023	-318.822855	8256.682522	396.501062
303.05	-0.000568	-0.000532	10.602663	-318.637162	8244.109130	388.584788
303.56	-0.000576	-0.000507	10.602752	-319.392897	8263.550455	390.535117
304.07	-0.000570	-0.000531	10.602712	-318.413094	8240.081477	389.663000
304.58	-0.000573	-0.000518	10.602496	-318.736757	8242.540093	384.901130
305.09	-0.000571	-0.000552	10.602611	-317.481450	8216.310565	387.445388
305.60	-0.000568	-0.000523	10.602619	-318.194324	8232.909246	387.625261
306.11	-0.000556	-0.000537	10.602824	-317.634611	8224.741950	392.124938
306.62	-0.000560	-0.000506	10.602627	-318.653661	8243.652243	387.786671
307.13	-0.000557	-0.000511	10.602549	-318.385886	8235.689885	386.071300
307.64	-0.000559	-0.000480	10.602778	-319.529800	8267.305002	391.110400
308.15	-0.000552	-0.000505	10.602792	-318.681769	8248.107306	391.419164
308.66	-0.000555	-0.000492	10.603014	-319.053078	8261.785216	396.313174
309.18	-0.000546	-0.000532	10.603923	-317.704644	8251.693622	416.296431
309.69	-0.000546	-0.000520	10.604700	-318.028174	8277.073797	433.402471
310.20	-0.000544	-0.000562	10.603636	-316.670514	8221.277614	409.990463
310.71	-0.000547	-0.000554	10.602901	-316.818802	8207.748015	393.828319
311.22	-0.000541	-0.000582	10.602766	-315.871254	8182.807217	390.843962
311.73	-0.000547	-0.000568	10.602721	-316.262447	8190.778153	389.857445
312.24	-0.000541	-0.000579	10.602475	-315.734421	8172.964415	384.459530
312.75	-0.000552	-0.000561	10.602691	-316.132635	8187.114049	389.212721
313.26	-0.000546	-0.000583	10.602740	-315.221083	8167.243132	390.274141
313.77	-0.000546	-0.000564	10.602738	-315.546102	8174.683417	390.234502
314.28	-0.000546	-0.000601	10.604859	-314.053969	8189.242432	436.887529
314.79	-0.000547	-0.000603	10.604910	-313.690167	8182.047130	438.012477
315.30	-0.000539	-0.000649	10.604912	-311.594235	8133.854261	438.064722
315.81	-0.000547	-0.000646	10.604873	-311.343856	8127.180053	437.196106
316.32	-0.000541	-0.000670	10.604881	-310.454098	8106.882207	437.371699
316.83	-0.000539	-0.000638	10.604909	-311.637994	8134.787869	437.994390
317.34	-0.000531	-0.000629	10.585111	-311.712202	7679.901819	2.446789
317.85	-0.000522	-0.000567	10.585090	-313.933341	7730.531249	1.969422
318.36	-0.000517	-0.000549	10.591105	-314.849932	7890.359288	134.303166
318.87	-0.000514	-0.000489	10.591723	-317.214561	7959.042238	147.896316
319.38	-0.000513	-0.000464	10.590691	-318.401449	7962.562980	125.192420
319.89	-0.000507	-0.000408	10.590425	-320.836683	8012.501511	119.354766
320.40	-0.000498	-0.000400	10.594902	-321.264958	8125.603080	217.838629
320.91	-0.000504	-0.000355	10.594908	-322.989946	8165.456326	217.976577
321.42	-0.000498	-0.000358	10.594123	-323.111207	8150.145593	200.708868
321.93	-0.000500	-0.000338	10.594113	-323.795600	8165.674851	200.494033
322.44	-0.000503	-0.000362	10.594870	-322.965357	8164.021720	217.148031
322.95	-0.000503	-0.000359	10.594892	-323.056072	8166.604886	217.620174
323.46	-0.000495	-0.000417	10.593154	-320.415663	8065.737971	179.382298
323.97	-0.000511	-0.000437	10.591755	-319.435982	8010.930911	148.613955
324.48	-0.000499	-0.000499	10.590108	-316.604469	7907.761988	112.376577
324.99	-0.000495	-0.000509	10.590103	-315.555943	7883.512513	112.269012
325.50	-0.000487	-0.000540	10.590105	-314.177353	7851.815873	112.305280
326.01	-0.000484	-0.000516	10.590112	-314.850533	7867.482755	112.467943
326.52	-0.000475	-0.000516	10.593282	-314.836731	7940.275882	182.208748
327.03	-0.000472	-0.000466	10.592238	-316.937035	7964.533240	159.228296
327.54	-0.000462	-0.000453	10.590125	-317.416481	7926.856497	112.760309
328.05	-0.000460	-0.000398	10.590103	-319.700016	7978.893027	112.255043
328.56	-0.000455	-0.000405	10.590097	-319.433298	7972.616187	112.124289
329.07	-0.000458	-0.000387	10.590097	-320.109073	7988.184761	112.136174
329.58	-0.000446	-0.000434	10.590104	-317.949419	7938.635830	112.294110
330.09	-0.000452	-0.000440	10.590092	-317.470685	7927.331993	112.023639
330.60	-0.000451	-0.000491	10.590084	-315.589205	7883.826068	111.837734
331.11	-0.000457	-0.000510	10.590081	-314.606441	7861.139739	111.777216
331.62	-0.000455	-0.000564	10.602431	-312.290656	8092.656797	383.473827
332.13	-0.000459	-0.000581	10.602561	-311.285529	8072.521086	386.337430
332.64	-0.000462	-0.000639	10.601952	-308.791298	8001.063653	372.943565
333.15	-0.000464	-0.000654	10.602293	-307.750003	7984.956214	380.443941
333.66	-0.000458	-0.000705	10.603045	-305.398695	7948.170768	396.985478
334.17	-0.000459	-0.000704	10.602821	-305.055141	7935.093039	392.054527
334.69	-0.000466	-0.000729	10.602751	-304.062186	7910.618208	390.511714
335.20	-0.000457	-0.000697	10.602851	-305.228716	7939.792342	392.725739
335.71	-0.000450	-0.000707	10.603024	-304.764381	7933.091074	396.529499
336.22	-0.000450	-0.000671	10.603251	-306.416229	7976.355725	401.527654
336.73	-0.000435	-0.000672	10.603513	-306.281757	7979.287024	407.276659
337.24	-0.000437	-0.000633	10.603835	-307.422774	8012.980597	414.362015
